# Wavelength  (nm), Reflectance (%)
250.000000, 2.057270
251.000000, 2.008150
252.000000, 2.021700
253.000000, 2.046940
254.000000, 2.027960
255.000000, 2.765700
256.000000, 2.782880
257.000000, 3.115250
258.000000, 3.432590
259.000000, 4.403840
260.000000, 5.132400
261.000000, 6.006960
262.000000, 7.553150
263.000000, 9.062680
264.000000, 10.814450
265.000000, 12.626630
266.000000, 14.560680
267.000000, 16.733420
268.000000, 19.950230
269.000000, 23.318800
270.000000, 27.336820
271.000000, 31.703600
272.000000, 36.423660
273.000000, 41.009410
274.000000, 45.790240
275.000000, 49.771200
276.000000, 53.290300
277.000000, 55.799070
278.000000, 56.750890
279.000000, 56.804150
280.000000, 55.485850
281.000000, 52.195190
282.000000, 49.045980
283.000000, 44.555690
284.000000, 41.064550
285.000000, 38.743260
286.000000, 37.677760
287.000000, 38.433970
288.000000, 42.128480
289.000000, 47.284440
290.000000, 53.505340
291.000000, 60.373830
292.000000, 66.132840
293.000000, 71.711120
294.000000, 76.320660
295.000000, 80.414990
296.000000, 83.516250
297.000000, 84.565770
298.000000, 84.978200
299.000000, 84.391010
300.000000, 83.853460
301.000000, 83.774040
302.000000, 83.948010
303.000000, 83.367260
304.000000, 82.071680
305.000000, 79.759660
306.000000, 77.401010
307.000000, 75.534370
308.000000, 74.513420
309.000000, 73.631710
310.000000, 72.683470
311.000000, 70.233370
312.000000, 66.282190
313.000000, 60.780310
314.000000, 56.138500
315.000000, 52.999050
316.000000, 52.337000
317.000000, 55.340640
318.000000, 60.071790
319.000000, 64.565540
320.000000, 68.978430
321.000000, 69.595030
322.000000, 68.415290
323.000000, 66.819290
324.000000, 65.620270
325.000000, 66.352160
326.000000, 67.484610
327.000000, 69.078200
328.000000, 69.349370
329.000000, 67.736790
330.000000, 64.262830
331.000000, 59.417480
332.000000, 56.092600
333.000000, 54.063410
334.000000, 53.689060
335.000000, 54.235240
336.000000, 54.618360
337.000000, 54.696310
338.000000, 54.658560
339.000000, 55.225430
340.000000, 57.260630
341.000000, 60.441760
342.000000, 64.065430
343.000000, 67.175030
344.000000, 69.029510
345.000000, 69.378050
346.000000, 67.868120
347.000000, 64.911440
348.000000, 61.283650
349.000000, 57.401600
350.000000, 54.199300
351.000000, 52.791590
352.000000, 53.187540
353.000000, 55.585740
354.000000, 60.450710
355.000000, 66.632720
356.000000, 73.375990
357.000000, 79.799610
358.000000, 85.053190
359.000000, 88.428370
360.000000, 90.727480
361.000000, 92.231840
362.000000, 93.586770
363.000000, 94.833940
364.000000, 96.106230
365.000000, 97.326670
366.000000, 98.143530
367.000000, 98.692720
368.000000, 98.991140
369.000000, 99.015480
370.000000, 99.018190
371.000000, 98.761930
372.000000, 98.750970
373.000000, 98.563270
374.000000, 98.339680
375.000000, 98.172630
376.000000, 97.829050
377.000000, 97.581410
378.000000, 97.529490
379.000000, 97.530750
380.000000, 97.670390
381.000000, 97.834650
382.000000, 98.059530
383.000000, 98.140650
384.000000, 98.167570
385.000000, 98.211350
386.000000, 98.150530
387.000000, 98.073550
388.000000, 98.016010
389.000000, 97.971440
390.000000, 97.971630
391.000000, 98.011050
392.000000, 98.066600
393.000000, 98.204530
394.000000, 98.290640
395.000000, 98.325240
396.000000, 98.341850
397.000000, 98.292480
398.000000, 98.263580
399.000000, 98.289860
400.000000, 98.363110
401.000000, 98.490600
402.000000, 98.670310
403.000000, 98.788360
404.000000, 98.873230
405.000000, 98.908120
406.000000, 98.890900
407.000000, 98.756410
408.000000, 98.678260
409.000000, 98.573220
410.000000, 98.573620
411.000000, 98.546210
412.000000, 98.591570
413.000000, 98.722650
414.000000, 98.745290
415.000000, 98.760810
416.000000, 98.729640
417.000000, 98.610020
418.000000, 98.554940
419.000000, 98.472310
420.000000, 98.487770
421.000000, 98.581820
422.000000, 98.695880
423.000000, 98.847160
424.000000, 99.040470
425.000000, 99.217620
426.000000, 99.281490
427.000000, 99.316290
428.000000, 99.261310
429.000000, 99.165780
430.000000, 99.052840
431.000000, 98.948110
432.000000, 98.912360
433.000000, 98.865380
434.000000, 98.853790
435.000000, 98.905540
436.000000, 98.941830
437.000000, 99.031690
438.000000, 99.044680
439.000000, 99.047190
440.000000, 99.028460
441.000000, 98.985980
442.000000, 98.962330
443.000000, 98.910780
444.000000, 98.868010
445.000000, 98.856130
446.000000, 98.900200
447.000000, 98.977420
448.000000, 99.092610
449.000000, 99.174150
450.000000, 99.301590
451.000000, 99.434770
452.000000, 99.534840
453.000000, 99.595600
454.000000, 99.641610
455.000000, 99.668410
456.000000, 99.706690
457.000000, 99.708360
458.000000, 99.690790
459.000000, 99.701330
460.000000, 99.702910
461.000000, 99.716950
462.000000, 99.707630
463.000000, 99.680900
464.000000, 99.672490
465.000000, 99.647110
466.000000, 99.616220
467.000000, 99.571800
468.000000, 99.514630
469.000000, 99.487870
470.000000, 99.460000
471.000000, 99.441100
472.000000, 99.415320
473.000000, 99.403700
474.000000, 99.420560
475.000000, 99.448960
476.000000, 99.471570
477.000000, 99.489030
478.000000, 99.532590
479.000000, 99.572500
480.000000, 99.601750
481.000000, 99.604510
482.000000, 99.581170
483.000000, 99.582890
484.000000, 99.552840
485.000000, 99.518510
486.000000, 99.439630
487.000000, 99.354000
488.000000, 99.245600
489.000000, 99.062670
490.000000, 98.761100
491.000000, 98.281490
492.000000, 97.485040
493.000000, 96.225220
494.000000, 94.356580
495.000000, 91.769190
496.000000, 88.548630
497.000000, 84.839240
498.000000, 80.791140
499.000000, 76.624460
500.000000, 72.431430
501.000000, 68.331700
502.000000, 64.573850
503.000000, 61.176830
504.000000, 58.285050
505.000000, 55.956700
506.000000, 54.094320
507.000000, 52.465120
508.000000, 50.760180
509.000000, 48.769680
510.000000, 46.375560
511.000000, 43.496190
512.000000, 40.216510
513.000000, 36.606200
514.000000, 32.777970
515.000000, 28.827800
516.000000, 24.898370
517.000000, 21.054120
518.000000, 17.502860
519.000000, 14.215000
520.000000, 8.317090
521.000000, 7.910900
522.000000, 7.006190
523.000000, 5.595050
524.000000, 4.636980
525.000000, 4.024800
526.000000, 3.654920
527.000000, 3.401700
528.000000, 3.184200
529.000000, 2.995100
530.000000, 2.801180
531.000000, 2.609620
532.000000, 2.429100
533.000000, 2.279820
534.000000, 2.154620
535.000000, 2.068050
536.000000, 1.985200
537.000000, 1.915300
538.000000, 1.843980
539.000000, 1.766790
540.000000, 1.695310
541.000000, 1.628070
542.000000, 1.584330
543.000000, 1.556110
544.000000, 1.566600
545.000000, 1.591640
546.000000, 1.643520
547.000000, 1.712870
548.000000, 1.794480
549.000000, 1.866290
550.000000, 1.915890
551.000000, 1.950400
552.000000, 1.951040
553.000000, 1.931210
554.000000, 1.889700
555.000000, 1.826350
556.000000, 1.751920
557.000000, 1.681060
558.000000, 1.617670
559.000000, 1.566040
560.000000, 1.530420
561.000000, 1.508150
562.000000, 1.493780
563.000000, 1.506120
564.000000, 1.519290
565.000000, 1.548320
566.000000, 1.562820
567.000000, 1.580300
568.000000, 1.579410
569.000000, 1.591250
570.000000, 1.580430
571.000000, 1.575670
572.000000, 1.568370
573.000000, 1.574130
574.000000, 1.574320
575.000000, 1.587250
576.000000, 1.610970
577.000000, 1.644330
578.000000, 1.686120
579.000000, 1.728100
580.000000, 1.779670
581.000000, 1.835340
582.000000, 1.889260
583.000000, 1.938790
584.000000, 1.978990
585.000000, 2.005090
586.000000, 2.023270
587.000000, 2.027050
588.000000, 2.012150
589.000000, 2.001830
590.000000, 1.974400
591.000000, 1.941910
592.000000, 1.906460
593.000000, 1.875310
594.000000, 1.833910
595.000000, 1.798260
596.000000, 1.764460
597.000000, 1.732140
598.000000, 1.693640
599.000000, 1.666870
600.000000, 1.643920
601.000000, 1.616450
602.000000, 1.587430
603.000000, 1.559020
604.000000, 1.539290
605.000000, 1.508140
606.000000, 1.475870
607.000000, 1.448610
608.000000, 1.410750
609.000000, 1.392180
610.000000, 1.353800
611.000000, 1.324510
612.000000, 1.293070
613.000000, 1.266400
614.000000, 1.232840
615.000000, 1.215210
616.000000, 1.204190
617.000000, 1.189480
618.000000, 1.167260
619.000000, 1.160100
620.000000, 1.154690
621.000000, 1.147870
622.000000, 1.146740
623.000000, 1.141290
624.000000, 1.140510
625.000000, 1.136680
626.000000, 1.142640
627.000000, 1.139580
628.000000, 1.144290
629.000000, 1.149090
630.000000, 1.160380
631.000000, 1.170460
632.000000, 1.183810
633.000000, 1.195830
634.000000, 1.216790
635.000000, 1.227460
636.000000, 1.248140
637.000000, 1.262720
638.000000, 1.280430
639.000000, 1.295680
640.000000, 1.310900
641.000000, 1.324280
642.000000, 1.338020
643.000000, 1.355750
644.000000, 1.354250
645.000000, 1.360980
646.000000, 1.370130
647.000000, 1.360300
648.000000, 1.361550
649.000000, 1.366480
650.000000, 1.359400
651.000000, 1.349300
652.000000, 1.347090
653.000000, 1.343180
654.000000, 1.344000
655.000000, 1.342580
656.000000, 1.339660
657.000000, 1.342510
658.000000, 1.337300
659.000000, 1.339500
660.000000, 1.341470
661.000000, 1.331110
662.000000, 1.336240
663.000000, 1.339660
664.000000, 1.328610
665.000000, 1.324690
666.000000, 1.328110
667.000000, 1.312780
668.000000, 1.311780
669.000000, 1.294190
670.000000, 1.287610
671.000000, 1.268620
672.000000, 1.264420
673.000000, 1.254180
674.000000, 1.234080
675.000000, 1.226410
676.000000, 1.217890
677.000000, 1.198590
678.000000, 1.194350
679.000000, 1.185630
680.000000, 1.189590
681.000000, 1.179790
682.000000, 1.177430
683.000000, 1.178650
684.000000, 1.181380
685.000000, 1.188760
686.000000, 1.197100
687.000000, 1.203170
688.000000, 1.206870
689.000000, 1.209950
690.000000, 1.222620
691.000000, 1.231850
692.000000, 1.231770
693.000000, 1.230890
694.000000, 1.226520
695.000000, 1.230960
696.000000, 1.235940
697.000000, 1.227270
698.000000, 1.220750
699.000000, 1.210770
700.000000, 1.205780
701.000000, 1.204900
702.000000, 1.200380
703.000000, 1.204690
704.000000, 1.200550
705.000000, 1.188420
706.000000, 1.187850
707.000000, 1.191560
708.000000, 1.191300
709.000000, 1.195270
710.000000, 1.189910
711.000000, 1.196970
712.000000, 1.217080
713.000000, 1.229210
714.000000, 1.230510
715.000000, 1.250260
716.000000, 1.239630
717.000000, 1.251600
718.000000, 1.263500
719.000000, 1.266570
720.000000, 1.289890
721.000000, 1.283670
722.000000, 1.283820
723.000000, 1.274480
724.000000, 1.271250
725.000000, 1.260760
726.000000, 1.250420
727.000000, 1.227810
728.000000, 1.212790
729.000000, 1.204150
730.000000, 1.171850
731.000000, 1.168750
732.000000, 1.135300
733.000000, 1.124260
734.000000, 1.110500
735.000000, 1.089680
736.000000, 1.071650
737.000000, 1.055760
738.000000, 1.040750
739.000000, 1.032110
740.000000, 1.023950
741.000000, 1.025810
742.000000, 1.017380
743.000000, 1.020520
744.000000, 1.013400
745.000000, 1.014780
746.000000, 1.018130
747.000000, 1.021720
748.000000, 1.029930
749.000000, 1.046100
750.000000, 1.048310
751.000000, 1.056710
752.000000, 1.064190
753.000000, 1.076770
754.000000, 1.081160
755.000000, 1.099340
756.000000, 1.101380
757.000000, 1.102470
758.000000, 1.108030
759.000000, 1.114390
760.000000, 1.121470
761.000000, 1.115810
762.000000, 1.129500
763.000000, 1.136980
764.000000, 1.127640
765.000000, 1.134000
766.000000, 1.135880
767.000000, 1.139060
768.000000, 1.141420
769.000000, 1.151720
770.000000, 1.140360
771.000000, 1.153500
772.000000, 1.147920
773.000000, 1.150670
774.000000, 1.167430
775.000000, 1.169320
776.000000, 1.171640
777.000000, 1.179260
778.000000, 1.186640
779.000000, 1.180880
780.000000, 1.194030
781.000000, 1.192290
782.000000, 1.196920
783.000000, 1.205210
784.000000, 1.207240
785.000000, 1.214690
786.000000, 1.220830
787.000000, 1.227220
788.000000, 1.226060
789.000000, 1.237960
790.000000, 1.245700
791.000000, 1.251440
792.000000, 1.257010
793.000000, 1.263630
794.000000, 1.283330
795.000000, 1.294070
796.000000, 1.299820
797.000000, 1.311510
798.000000, 1.333260
799.000000, 1.344920
800.000000, 1.361940
801.000000, 1.378960
802.000000, 1.411090
803.000000, 1.426130
804.000000, 1.457870
805.000000, 1.475270
806.000000, 1.504490
807.000000, 1.526640
808.000000, 1.565820
809.000000, 1.593020
810.000000, 1.630010
811.000000, 1.669710
812.000000, 1.711790
813.000000, 1.770420
814.000000, 1.817970
815.000000, 1.883330
816.000000, 1.954240
817.000000, 2.037270
818.000000, 2.122400
819.000000, 2.226530
820.000000, 2.349330
821.000000, 2.477630
822.000000, 2.622800
823.000000, 2.797240
824.000000, 2.988370
825.000000, 3.200500
826.000000, 3.437200
827.000000, 3.689970
828.000000, 3.974140
829.000000, 4.291040
830.000000, 4.645230
831.000000, 5.016690
832.000000, 5.426350
833.000000, 5.866150
834.000000, 6.323300
835.000000, 6.828820
836.000000, 7.374970
837.000000, 7.940660
838.000000, 8.525750
839.000000, 9.152090
840.000000, 9.814500
841.000000, 10.473050
842.000000, 11.201570
843.000000, 11.940970
844.000000, 12.665810
845.000000, 13.453020
846.000000, 14.254610
847.000000, 15.052620
848.000000, 15.902350
849.000000, 16.784430
850.000000, 17.625020
851.000000, 18.523530
852.000000, 19.445790
853.000000, 20.346570
854.000000, 21.290200
855.000000, 22.276150
856.000000, 23.247840
857.000000, 24.230890
858.000000, 25.249810
859.000000, 26.305260
860.000000, 27.334680
861.000000, 28.458120
862.000000, 29.583260
863.000000, 30.682520
864.000000, 31.860930
865.000000, 33.056190
866.000000, 34.248300
867.000000, 35.495950
868.000000, 36.809250
869.000000, 38.052750
870.000000, 39.354550
871.000000, 40.717520
872.000000, 42.030330
873.000000, 43.413620
874.000000, 44.833280
875.000000, 46.201300
876.000000, 47.600400
877.000000, 48.988550
878.000000, 50.407250
879.000000, 51.752670
880.000000, 53.181130
881.000000, 54.558260
882.000000, 55.870630
883.000000, 57.206100
884.000000, 58.533730
885.000000, 59.775340
886.000000, 61.046360
887.000000, 62.287310
888.000000, 63.428450
889.000000, 64.579650
890.000000, 65.706010
891.000000, 66.743090
892.000000, 67.771230
893.000000, 68.775840
894.000000, 69.703310
895.000000, 70.578590
896.000000, 71.454030
897.000000, 72.249000
898.000000, 73.013790
899.000000, 73.771490
900.000000, 74.458410
901.000000, 75.105880
902.000000, 75.727030
903.000000, 76.308080
904.000000, 76.833080
905.000000, 77.360490
906.000000, 77.841880
907.000000, 78.266460
908.000000, 78.681940
909.000000, 79.063800
910.000000, 79.394800
911.000000, 79.715960
912.000000, 80.018550
913.000000, 80.274930
914.000000, 80.517100
915.000000, 80.729450
916.000000, 80.928070
917.000000, 81.087570
918.000000, 81.234070
919.000000, 81.360860
920.000000, 81.455560
921.000000, 81.530010
922.000000, 81.578620
923.000000, 81.620940
924.000000, 81.629070
925.000000, 81.625740
926.000000, 81.600570
927.000000, 81.552340
928.000000, 81.486440
929.000000, 81.412020
930.000000, 81.306520
931.000000, 81.170330
932.000000, 81.047130
933.000000, 80.881050
934.000000, 80.697030
935.000000, 80.496530
936.000000, 80.280160
937.000000, 80.047600
938.000000, 79.791880
939.000000, 79.506740
940.000000, 79.215090
941.000000, 78.905970
942.000000, 78.595510
943.000000, 78.228940
944.000000, 77.851690
945.000000, 77.486120
946.000000, 77.090290
947.000000, 76.664120
948.000000, 76.240810
949.000000, 75.778040
950.000000, 75.307620
951.000000, 74.846200
952.000000, 74.345990
953.000000, 73.836350
954.000000, 73.303110
955.000000, 72.785840
956.000000, 72.229860
957.000000, 71.679000
958.000000, 71.117960
959.000000, 70.546880
960.000000, 69.953350
961.000000, 69.379490
962.000000, 68.797970
963.000000, 68.178500
964.000000, 67.603360
965.000000, 67.006850
966.000000, 66.383310
967.000000, 65.808110
968.000000, 65.182730
969.000000, 64.581110
970.000000, 64.006710
971.000000, 63.416760
972.000000, 62.819000
973.000000, 62.246860
974.000000, 61.691330
975.000000, 61.101990
976.000000, 60.548260
977.000000, 60.007750
978.000000, 59.462380
979.000000, 58.930270
980.000000, 58.406030
981.000000, 57.876680
982.000000, 57.362440
983.000000, 56.867580
984.000000, 56.372920
985.000000, 55.878120
986.000000, 55.396040
987.000000, 54.896270
988.000000, 54.424050
989.000000, 53.954320
990.000000, 53.478620
991.000000, 53.002640
992.000000, 52.534180
993.000000, 52.050340
994.000000, 51.558870
995.000000, 51.085480
996.000000, 50.583630
997.000000, 50.081080
998.000000, 49.573990
999.000000, 49.067380
1000.000000, 48.513440
1001.000000, 47.961900
1002.000000, 47.424010
1003.000000, 46.851250
1004.000000, 46.255390
1005.000000, 45.667160
1006.000000, 45.043200
1007.000000, 44.393230
1008.000000, 43.777630
1009.000000, 43.102880
1010.000000, 42.422540
1011.000000, 41.741560
1012.000000, 41.045600
1013.000000, 40.307860
1014.000000, 39.592240
1015.000000, 38.858310
1016.000000, 38.109280
1017.000000, 37.368680
1018.000000, 36.618160
1019.000000, 35.841990
1020.000000, 35.073170
1021.000000, 34.336930
1022.000000, 33.582290
1023.000000, 32.835030
1024.000000, 32.123640
1025.000000, 31.400260
1026.000000, 30.698400
1027.000000, 30.054140
1028.000000, 29.409530
1029.000000, 28.802880
1030.000000, 28.249130
1031.000000, 27.725270
1032.000000, 27.233760
1033.000000, 26.822900
1034.000000, 26.457280
1035.000000, 26.147470
1036.000000, 25.901540
1037.000000, 25.722250
1038.000000, 25.610600
1039.000000, 25.565700
1040.000000, 25.592300
1041.000000, 25.690740
1042.000000, 25.861480
1043.000000, 26.092640
1044.000000, 26.403960
1045.000000, 26.789580
1046.000000, 27.211220
1047.000000, 27.710320
1048.000000, 28.257250
1049.000000, 28.837980
1050.000000, 30.030620
1051.000000, 30.705700
1052.000000, 31.389480
1053.000000, 32.093730
1054.000000, 32.845150
1055.000000, 33.589390
1056.000000, 34.360280
1057.000000, 35.147890
1058.000000, 35.939900
1059.000000, 36.691500
1060.000000, 37.474960
1061.000000, 38.254190
1062.000000, 38.982800
1063.000000, 39.754070
1064.000000, 40.498730
1065.000000, 41.190040
1066.000000, 41.888040
1067.000000, 42.565400
1068.000000, 43.209950
1069.000000, 43.827450
1070.000000, 44.447440
1071.000000, 45.010610
1072.000000, 45.551100
1073.000000, 46.073910
1074.000000, 46.567500
1075.000000, 47.036900
1076.000000, 47.494190
1077.000000, 47.918430
1078.000000, 48.312840
1079.000000, 48.682820
1080.000000, 49.035420
1081.000000, 49.353420
1082.000000, 49.668820
1083.000000, 49.969270
1084.000000, 50.239280
1085.000000, 50.485720
1086.000000, 50.731940
1087.000000, 50.938840
1088.000000, 51.130480
1089.000000, 51.321290
1090.000000, 51.471000
1091.000000, 51.641750
1092.000000, 51.786640
1093.000000, 51.917110
1094.000000, 52.028800
1095.000000, 52.171450
1096.000000, 52.252140
1097.000000, 52.390190
1098.000000, 52.435280
1099.000000, 52.553370
1100.000000, 52.607530
1101.000000, 52.720210
1102.000000, 52.748200
1103.000000, 52.843470
1104.000000, 52.898710
1105.000000, 52.958490
1106.000000, 53.022310
1107.000000, 53.070740
1108.000000, 53.166190
1109.000000, 53.178590
1110.000000, 53.250100
1111.000000, 53.341250
1112.000000, 53.332080
1113.000000, 53.414050
1114.000000, 53.506550
1115.000000, 53.552750
1116.000000, 53.586300
1117.000000, 53.623760
1118.000000, 53.737430
1119.000000, 53.792770
1120.000000, 53.846370
1121.000000, 53.931130
1122.000000, 53.967490
1123.000000, 54.043470
1124.000000, 54.106230
1125.000000, 54.176330
1126.000000, 54.234980
1127.000000, 54.313540
1128.000000, 54.365430
1129.000000, 54.435680
1130.000000, 54.486720
1131.000000, 54.528500
1132.000000, 54.614810
1133.000000, 54.674970
1134.000000, 54.712010
1135.000000, 54.752900
1136.000000, 54.800720
1137.000000, 54.834610
1138.000000, 54.871390
1139.000000, 54.887620
1140.000000, 54.901560
1141.000000, 54.906900
1142.000000, 54.950680
1143.000000, 54.918120
1144.000000, 54.890800
1145.000000, 54.898110
1146.000000, 54.861130
1147.000000, 54.796880
1148.000000, 54.773740
1149.000000, 54.705560
1150.000000, 54.608300
1151.000000, 54.571320
1152.000000, 54.457950
1153.000000, 54.344940
1154.000000, 54.236560
1155.000000, 54.090350
1156.000000, 53.941500
1157.000000, 53.786830
1158.000000, 53.616140
1159.000000, 53.414840
1160.000000, 53.221730
1161.000000, 53.011650
1162.000000, 52.813220
1163.000000, 52.493150
1164.000000, 52.268420
