# Wavelength  (nm), Transmission (%)
200.000000, 0.068206
201.000000, 0.068430
202.000000, 0.068422
203.000000, 0.067608
204.000000, 0.067144
205.000000, 0.064955
206.000000, 0.066565
207.000000, 0.068406
208.000000, 0.068289
209.000000, 0.066449
210.000000, 0.067367
211.000000, 0.065530
212.000000, 0.063808
213.000000, 0.067021
214.000000, 0.064497
215.000000, 0.064498
216.000000, 0.066560
217.000000, 0.063468
218.000000, 0.063126
219.000000, 0.066672
220.000000, 0.067471
221.000000, 0.067012
222.000000, 0.067124
223.000000, 0.063706
224.000000, 0.064163
225.000000, 0.068139
226.000000, 0.065413
227.000000, 0.065413
228.000000, 0.067336
229.000000, 0.066204
230.000000, 0.063494
231.000000, 0.067556
232.000000, 0.065525
233.000000, 0.064511
234.000000, 0.066651
235.000000, 0.067327
236.000000, 0.063047
237.000000, 0.066314
238.000000, 0.067103
239.000000, 0.066427
240.000000, 0.067331
241.000000, 0.067895
242.000000, 0.064171
243.000000, 0.066994
244.000000, 0.065752
245.000000, 0.065526
246.000000, 0.066430
247.000000, 0.066655
248.000000, 0.064397
249.000000, 0.066542
250.000000, 0.065639
251.000000, 0.064849
252.000000, 0.068231
253.000000, 0.066314
254.000000, 0.061134
255.000000, 0.067664
256.000000, 0.065863
257.000000, 0.064175
258.000000, 0.067997
259.000000, 0.065862
260.000000, 0.062268
261.000000, 0.066311
262.000000, 0.066198
263.000000, 0.063280
264.000000, 0.067208
265.000000, 0.061259
266.000000, 0.061932
267.000000, 0.068107
268.000000, 0.064514
269.000000, 0.062717
270.000000, 0.068444
271.000000, 0.061593
272.000000, 0.063054
273.000000, 0.066648
274.000000, 0.064064
275.000000, 0.062268
276.000000, 0.068667
277.000000, 0.061147
278.000000, 0.061373
279.000000, 0.064515
280.000000, 0.063057
281.000000, 0.063394
282.000000, 0.067541
283.000000, 0.064516
284.000000, 0.062276
285.000000, 0.067316
286.000000, 0.061830
287.000000, 0.063398
288.000000, 0.066530
289.000000, 0.065076
290.000000, 0.066418
291.000000, 0.066194
292.000000, 0.063848
293.000000, 0.063625
294.000000, 0.065747
295.000000, 0.065746
296.000000, 0.062957
297.000000, 0.066862
298.000000, 0.062290
299.000000, 0.063406
300.000000, 0.067416
301.000000, 0.063518
302.000000, 0.062628
303.000000, 0.066636
304.000000, 0.062296
305.000000, 0.063076
306.000000, 0.066856
307.000000, 0.062967
308.000000, 0.061302
309.000000, 0.066077
310.000000, 0.062969
311.000000, 0.062415
312.000000, 0.065633
313.000000, 0.063971
314.000000, 0.061312
315.000000, 0.065854
316.000000, 0.061867
317.000000, 0.064636
318.000000, 0.065189
319.000000, 0.066531
320.000000, 0.063510
321.000000, 0.066307
322.000000, 0.062952
323.000000, 0.064071
324.000000, 0.065859
325.000000, 0.063736
326.000000, 0.062730
327.000000, 0.066082
328.000000, 0.065077
329.000000, 0.063403
330.000000, 0.066639
331.000000, 0.063627
332.000000, 0.062290
333.000000, 0.066972
334.000000, 0.063294
335.000000, 0.063740
336.000000, 0.067416
337.000000, 0.064855
338.000000, 0.065523
339.000000, 0.064187
340.000000, 0.060961
341.000000, 0.063521
342.000000, 0.066301
343.000000, 0.064633
344.000000, 0.063078
345.000000, 0.065300
346.000000, 0.063301
347.000000, 0.063968
348.000000, 0.066299
349.000000, 0.062971
350.000000, 0.061973
351.000000, 0.065189
352.000000, 0.063859
353.000000, 0.063084
354.000000, 0.065632
355.000000, 0.061757
356.000000, 0.062754
357.000000, 0.063640
358.000000, 0.062534
359.000000, 0.063199
360.000000, 0.066184
361.000000, 0.064305
362.000000, 0.063753
363.000000, 0.066736
364.000000, 0.063644
365.000000, 0.064417
366.000000, 0.064417
367.000000, 0.065521
368.000000, 0.061000
369.000000, 0.065300
370.000000, 0.063868
371.000000, 0.065630
372.000000, 0.067832
373.000000, 0.063650
374.000000, 0.061451
375.000000, 0.064970
376.000000, 0.063103
377.000000, 0.063653
378.000000, 0.065080
379.000000, 0.065958
380.000000, 0.063983
381.000000, 0.066287
382.000000, 0.065958
383.000000, 0.065629
384.000000, 0.067382
385.000000, 0.081514
386.000000, 0.110088
387.000000, 0.341598
388.000000, 3.443315
389.000000, 18.615812
390.000000, 49.497785
391.000000, 79.291074
392.000000, 92.166494
393.000000, 94.136694
394.000000, 95.174158
395.000000, 95.910451
396.000000, 96.305183
397.000000, 96.600059
398.000000, 96.511529
399.000000, 96.252421
400.000000, 96.289546
401.000000, 96.484915
402.000000, 96.610965
403.000000, 96.732841
404.000000, 96.664981
405.000000, 96.583426
406.000000, 96.731619
407.000000, 96.859638
408.000000, 97.012116
409.000000, 97.337793
410.000000, 97.026610
411.000000, 96.004270
412.000000, 95.660104
413.000000, 96.208364
414.000000, 96.262024
415.000000, 95.480096
416.000000, 95.381026
417.000000, 96.329991
418.000000, 96.654361
419.000000, 96.264430
420.000000, 96.516663
421.000000, 97.051883
422.000000, 97.167031
423.000000, 97.299955
424.000000, 97.577596
425.000000, 97.452314
426.000000, 97.110057
427.000000, 97.044568
428.000000, 97.088477
429.000000, 97.270334
430.000000, 97.516746
431.000000, 97.410781
432.000000, 97.218635
433.000000, 97.329411
434.000000, 97.144629
435.000000, 96.547766
436.000000, 96.396577
437.000000, 96.935004
438.000000, 97.178627
439.000000, 96.890589
440.000000, 96.849397
441.000000, 96.847960
442.000000, 96.227287
443.000000, 95.587914
444.000000, 95.406698
445.000000, 95.325635
446.000000, 95.332203
447.000000, 95.472807
448.000000, 95.559368
449.000000, 95.964531
450.000000, 96.638661
451.000000, 96.757576
452.000000, 96.362490
453.000000, 95.839494
454.000000, 95.490910
455.000000, 95.858062
456.000000, 96.730603
457.000000, 97.287585
458.000000, 97.311206
459.000000, 97.147342
460.000000, 97.099526
461.000000, 97.243167
462.000000, 97.213600
463.000000, 96.924619
464.000000, 96.626981
465.000000, 96.630230
466.000000, 97.102044
467.000000, 97.680141
468.000000, 97.960648
469.000000, 98.007713
470.000000, 98.010045
471.000000, 98.122952
472.000000, 98.380529
473.000000, 98.613167
474.000000, 98.759025
475.000000, 98.773774
476.000000, 98.489226
477.000000, 98.167783
478.000000, 98.189865
479.000000, 98.442943
480.000000, 98.576922
481.000000, 98.582169
482.000000, 98.681955
483.000000, 98.878169
484.000000, 98.924314
485.000000, 98.735740
486.000000, 98.480925
487.000000, 98.431583
488.000000, 98.506026
489.000000, 98.432088
490.000000, 98.352071
491.000000, 98.482840
492.000000, 98.549051
493.000000, 98.414242
494.000000, 98.409088
495.000000, 98.558544
496.000000, 98.650820
497.000000, 98.670535
498.000000, 98.592084
499.000000, 98.467051
500.000000, 98.569164
501.000000, 98.791422
502.000000, 98.765220
503.000000, 98.616345
504.000000, 98.613205
505.000000, 98.486445
506.000000, 98.207290
507.000000, 98.284460
508.000000, 98.686680
509.000000, 98.873998
510.000000, 98.743466
511.000000, 98.486506
512.000000, 98.325416
513.000000, 98.310841
514.000000, 98.348430
515.000000, 98.370487
516.000000, 98.303433
517.000000, 98.316449
518.000000, 98.562574
519.000000, 98.828544
520.000000, 98.915988
521.000000, 98.859222
522.000000, 98.813400
523.000000, 98.819209
524.000000, 98.812035
525.000000, 98.708337
526.000000, 98.521186
527.000000, 98.327141
528.000000, 98.359391
529.000000, 98.642966
530.000000, 98.926853
531.000000, 99.030223
532.000000, 98.949499
533.000000, 98.800315
534.000000, 98.715810
535.000000, 98.521347
536.000000, 98.299569
537.000000, 98.458727
538.000000, 98.815882
539.000000, 98.927085
540.000000, 98.720479
541.000000, 98.224198
542.000000, 97.779788
543.000000, 97.752986
544.000000, 97.994353
545.000000, 98.355397
546.000000, 98.726529
547.000000, 98.768910
548.000000, 98.606437
549.000000, 98.562910
550.000000, 98.406748
551.000000, 98.047241
552.000000, 97.982599
553.000000, 98.148737
554.000000, 98.357099
555.000000, 98.664904
556.000000, 98.845081
557.000000, 98.760412
558.000000, 98.652305
559.000000, 98.532142
560.000000, 98.370557
561.000000, 98.359896
562.000000, 98.375324
563.000000, 98.219806
564.000000, 97.961746
565.000000, 97.801900
566.000000, 97.872176
567.000000, 98.076133
568.000000, 98.440373
569.000000, 98.789160
570.000000, 98.900536
571.000000, 98.789896
572.000000, 98.466577
573.000000, 98.118663
574.000000, 97.988916
575.000000, 98.013337
576.000000, 98.090631
577.000000, 98.357911
578.000000, 98.710157
579.000000, 98.851786
580.000000, 98.710677
581.000000, 98.392836
582.000000, 98.018862
583.000000, 97.850556
584.000000, 97.973678
585.000000, 98.183634
586.000000, 98.153354
587.000000, 97.889661
588.000000, 97.764133
589.000000, 97.950192
590.000000, 98.304398
591.000000, 98.630197
592.000000, 98.703739
593.000000, 98.450650
594.000000, 98.125924
595.000000, 98.017115
596.000000, 98.178629
597.000000, 98.353755
598.000000, 98.432598
599.000000, 98.207431
600.000000, 97.590042
601.000000, 97.275822
602.000000, 97.683270
603.000000, 98.173933
604.000000, 98.359026
605.000000, 98.375155
606.000000, 98.360040
607.000000, 98.250059
608.000000, 98.277553
609.000000, 98.442437
610.000000, 98.348425
611.000000, 97.615123
612.000000, 96.979027
613.000000, 97.214322
614.000000, 98.137810
615.000000, 98.738059
616.000000, 98.840476
617.000000, 98.749613
618.000000, 98.242029
619.000000, 97.525768
620.000000, 97.379831
621.000000, 97.805873
622.000000, 98.369206
623.000000, 98.736237
624.000000, 98.882147
625.000000, 98.768115
626.000000, 98.098300
627.000000, 97.082383
628.000000, 96.785752
629.000000, 97.478214
630.000000, 98.360738
631.000000, 98.740526
632.000000, 98.811021
633.000000, 98.489072
634.000000, 97.986403
635.000000, 97.704072
636.000000, 97.866562
637.000000, 98.434767
638.000000, 98.845808
639.000000, 98.730649
640.000000, 98.448572
641.000000, 98.199101
642.000000, 97.864508
643.000000, 97.694518
644.000000, 97.958212
645.000000, 98.063224
646.000000, 97.695010
647.000000, 97.132375
648.000000, 96.929870
649.000000, 97.358556
650.000000, 98.186567
651.000000, 98.791409
652.000000, 98.961668
653.000000, 98.654033
654.000000, 97.787174
655.000000, 97.387256
656.000000, 97.918805
657.000000, 98.695743
658.000000, 98.870398
659.000000, 98.628548
660.000000, 98.400609
661.000000, 98.462320
662.000000, 98.374816
663.000000, 97.914366
664.000000, 97.865010
665.000000, 98.430697
666.000000, 99.032221
667.000000, 99.272295
668.000000, 99.077490
669.000000, 98.533142
670.000000, 97.997676
671.000000, 97.980260
672.000000, 98.301192
673.000000, 98.309079
674.000000, 97.537119
675.000000, 96.350509
676.000000, 96.208747
677.000000, 97.328750
678.000000, 98.535495
679.000000, 98.916880
680.000000, 98.524237
681.000000, 97.888740
682.000000, 97.857770
683.000000, 98.427985
684.000000, 98.567419
685.000000, 97.808730
686.000000, 97.078045
687.000000, 97.485103
688.000000, 98.009430
689.000000, 97.134635
690.000000, 95.579126
691.000000, 95.814995
692.000000, 97.408226
693.000000, 98.167100
694.000000, 97.530671
695.000000, 96.233592
696.000000, 85.539556
697.000000, 53.943105
698.000000, 17.727202
699.000000, 1.982169
700.000000, 0.195182
701.000000, 0.087081
702.000000, 0.038634
703.000000, 0.006529
704.000000, 0.000905
705.000000, 0.000944
706.000000, 0.000896
707.000000, 0.000921
708.000000, 0.000880
709.000000, 0.000870
710.000000, 0.000884
711.000000, 0.000908
712.000000, 0.000901
713.000000, 0.000936
714.000000, 0.000926
715.000000, 0.000920
716.000000, 0.000991
717.000000, 0.000942
718.000000, 0.000914
719.000000, 0.000920
720.000000, 0.000890
721.000000, 0.000876
722.000000, 0.000901
723.000000, 0.000913
724.000000, 0.000908
725.000000, 0.000932
726.000000, 0.000890
727.000000, 0.000888
728.000000, 0.000892
729.000000, 0.000904
730.000000, 0.000904
731.000000, 0.000927
732.000000, 0.000883
733.000000, 0.000883
734.000000, 0.000899
735.000000, 0.000917
736.000000, 0.000891
737.000000, 0.000951
738.000000, 0.000885
739.000000, 0.000898
740.000000, 0.000904
741.000000, 0.000895
742.000000, 0.000895
743.000000, 0.000921
744.000000, 0.000879
745.000000, 0.000882
746.000000, 0.000892
747.000000, 0.000923
748.000000, 0.000910
749.000000, 0.000939
750.000000, 0.000904
751.000000, 0.000899
752.000000, 0.000908
753.000000, 0.000882
754.000000, 0.000881
755.000000, 0.000961
756.000000, 0.000908
757.000000, 0.000882
758.000000, 0.000910
759.000000, 0.000904
760.000000, 0.000901
761.000000, 0.000948
762.000000, 0.000888
763.000000, 0.000898
764.000000, 0.000923
765.000000, 0.000913
766.000000, 0.000901
767.000000, 0.000948
768.000000, 0.000881
769.000000, 0.000879
770.000000, 0.000905
771.000000, 0.000904
772.000000, 0.000887
773.000000, 0.000945
774.000000, 0.000903
775.000000, 0.000900
776.000000, 0.000933
777.000000, 0.000923
778.000000, 0.000924
779.000000, 0.000935
780.000000, 0.000920
781.000000, 0.000897
782.000000, 0.000914
783.000000, 0.000872
784.000000, 0.000897
785.000000, 0.000962
786.000000, 0.000914
787.000000, 0.000900
788.000000, 0.000903
789.000000, 0.000871
790.000000, 0.000927
791.000000, 0.000943
792.000000, 0.000898
793.000000, 0.000913
794.000000, 0.000911
795.000000, 0.000872
796.000000, 0.000920
797.000000, 0.000943
798.000000, 0.000898
799.000000, 0.000898
800.000000, 0.000907
801.000000, 0.000894
802.000000, 0.000924
803.000000, 0.000947
804.000000, 0.000917
805.000000, 0.000920
806.000000, 0.000913
807.000000, 0.000877
808.000000, 0.000906
809.000000, 0.000924
810.000000, 0.000903
811.000000, 0.000923
812.000000, 0.000946
813.000000, 0.000907
814.000000, 0.000894
815.000000, 0.000904
816.000000, 0.000913
817.000000, 0.000914
818.000000, 0.000909
819.000000, 0.000881
820.000000, 0.000894
821.000000, 0.000909
822.000000, 0.000913
823.000000, 0.000924
824.000000, 0.000937
825.000000, 0.000913
826.000000, 0.000917
827.000000, 0.000898
828.000000, 0.000897
829.000000, 0.000927
830.000000, 0.000937
831.000000, 0.000936
832.000000, 0.000942
833.000000, 0.000919
834.000000, 0.000919
835.000000, 0.000924
836.000000, 0.000939
837.000000, 0.000936
838.000000, 0.000945
839.000000, 0.000911
840.000000, 0.000903
841.000000, 0.000937
842.000000, 0.000953
843.000000, 0.000948
844.000000, 0.000942
845.000000, 0.000910
846.000000, 0.000903
847.000000, 0.000937
848.000000, 0.000942
849.000000, 0.000916
850.000000, 0.000920
851.000000, 0.000903
852.000000, 0.000900
853.000000, 0.000929
854.000000, 0.000933
855.000000, 0.000926
856.000000, 0.000911
857.000000, 0.000869
858.000000, 0.000856
859.000000, 0.000914
860.000000, 0.000969
861.000000, 0.000928
862.000000, 0.000920
863.000000, 0.000922
864.000000, 0.000938
865.000000, 0.000921
866.000000, 0.000894
867.000000, 0.000906
868.000000, 0.000910
869.000000, 0.000931
870.000000, 0.000983
871.000000, 0.000987
872.000000, 0.000927
873.000000, 0.000877
874.000000, 0.000869
875.000000, 0.000883
876.000000, 0.000924
877.000000, 0.000952
878.000000, 0.000951
879.000000, 0.000943
880.000000, 0.000930
881.000000, 0.000916
882.000000, 0.000907
883.000000, 0.000912
884.000000, 0.000923
885.000000, 0.000941
886.000000, 0.000949
887.000000, 0.000933
888.000000, 0.000893
889.000000, 0.000882
890.000000, 0.000927
891.000000, 0.000961
892.000000, 0.000944
893.000000, 0.000895
894.000000, 0.000895
895.000000, 0.000932
896.000000, 0.000956
897.000000, 0.000951
898.000000, 0.000904
899.000000, 0.000883
900.000000, 0.000918
901.000000, 0.000956
902.000000, 0.000944
903.000000, 0.000905
904.000000, 0.000895
905.000000, 0.000932
906.000000, 0.000957
907.000000, 0.000940
908.000000, 0.000908
909.000000, 0.000899
910.000000, 0.000942
911.000000, 0.000954
912.000000, 0.000906
913.000000, 0.000890
914.000000, 0.000940
915.000000, 0.000954
916.000000, 0.000909
917.000000, 0.000901
918.000000, 0.000917
919.000000, 0.000914
920.000000, 0.000929
921.000000, 0.000949
922.000000, 0.000950
923.000000, 0.000897
924.000000, 0.000893
925.000000, 0.000942
926.000000, 0.000958
927.000000, 0.000926
928.000000, 0.000882
929.000000, 0.000896
930.000000, 0.000935
931.000000, 0.000952
932.000000, 0.000942
933.000000, 0.000903
934.000000, 0.000913
935.000000, 0.000940
936.000000, 0.000941
937.000000, 0.000893
938.000000, 0.000895
939.000000, 0.000946
940.000000, 0.000952
941.000000, 0.000935
942.000000, 0.000914
943.000000, 0.000909
944.000000, 0.000923
945.000000, 0.000937
946.000000, 0.000945
947.000000, 0.000952
948.000000, 0.000953
949.000000, 0.000942
950.000000, 0.000907
951.000000, 0.000886
952.000000, 0.000934
953.000000, 0.000937
954.000000, 0.000896
955.000000, 0.000925
956.000000, 0.000947
957.000000, 0.000942
958.000000, 0.000904
959.000000, 0.000927
960.000000, 0.000948
961.000000, 0.000946
962.000000, 0.000937
963.000000, 0.000905
964.000000, 0.000948
965.000000, 0.000933
966.000000, 0.000899
967.000000, 0.000934
968.000000, 0.000935
969.000000, 0.000903
970.000000, 0.000936
971.000000, 0.000950
972.000000, 0.000902
973.000000, 0.000923
974.000000, 0.000933
975.000000, 0.000953
976.000000, 0.000942
977.000000, 0.000954
978.000000, 0.000948
979.000000, 0.000901
980.000000, 0.000926
981.000000, 0.000934
982.000000, 0.000940
983.000000, 0.000938
984.000000, 0.000953
985.000000, 0.000942
986.000000, 0.000899
987.000000, 0.000942
988.000000, 0.000942
989.000000, 0.000927
990.000000, 0.000888
991.000000, 0.000937
992.000000, 0.000964
993.000000, 0.000951
994.000000, 0.000925
995.000000, 0.000894
996.000000, 0.000935
997.000000, 0.000963
998.000000, 0.000949
999.000000, 0.000899
1000.000000, 0.000907
1001.000000, 0.000959
1002.000000, 0.000959
1003.000000, 0.000939
1004.000000, 0.000867
1005.000000, 0.000870
1006.000000, 0.000949
1007.000000, 0.000969
1008.000000, 0.000961
1009.000000, 0.000939
1010.000000, 0.000872
1011.000000, 0.000873
1012.000000, 0.000932
1013.000000, 0.000954
1014.000000, 0.000975
1015.000000, 0.000948
1016.000000, 0.000897
1017.000000, 0.000929
1018.000000, 0.000950
1019.000000, 0.000940
1020.000000, 0.000944
1021.000000, 0.000931
1022.000000, 0.000879
1023.000000, 0.000928
1024.000000, 0.000942
1025.000000, 0.000937
1026.000000, 0.000942
1027.000000, 0.000929
1028.000000, 0.000886
1029.000000, 0.000939
1030.000000, 0.000948
1031.000000, 0.000950
1032.000000, 0.000948
1033.000000, 0.000931
1034.000000, 0.000864
1035.000000, 0.000889
1036.000000, 0.000956
1037.000000, 0.000952
1038.000000, 0.000954
1039.000000, 0.000948
1040.000000, 0.000947
1041.000000, 0.000919
1042.000000, 0.000852
1043.000000, 0.000874
1044.000000, 0.000939
1045.000000, 0.000940
1046.000000, 0.000942
1047.000000, 0.000949
1048.000000, 0.000946
1049.000000, 0.000934
1050.000000, 0.000885
1051.000000, 0.000919
1052.000000, 0.000929
1053.000000, 0.000932
1054.000000, 0.000926
1055.000000, 0.000929
1056.000000, 0.000951
1057.000000, 0.000947
1058.000000, 0.000940
1059.000000, 0.000868
1060.000000, 0.000929
1061.000000, 0.000916
1062.000000, 0.000927
1063.000000, 0.000920
1064.000000, 0.000939
1065.000000, 0.000950
1066.000000, 0.000930
1067.000000, 0.000956
1068.000000, 0.000994
1069.000000, 0.000916
1070.000000, 0.000917
1071.000000, 0.000934
1072.000000, 0.000948
1073.000000, 0.000933
1074.000000, 0.000922
1075.000000, 0.000925
1076.000000, 0.000917
1077.000000, 0.000918
1078.000000, 0.000935
1079.000000, 0.000940
1080.000000, 0.000946
1081.000000, 0.000926
1082.000000, 0.000939
1083.000000, 0.000923
1084.000000, 0.000923
1085.000000, 0.000907
1086.000000, 0.000863
1087.000000, 0.000931
1088.000000, 0.000940
