# Wavelength  (nm), Transmission (%)
200.000000, 0.004601
201.000000, 0.004580
202.000000, 0.004302
203.000000, 0.004223
204.000000, 0.004070
205.000000, 0.004071
206.000000, 0.003883
207.000000, 0.004119
208.000000, 0.003670
209.000000, 0.003399
210.000000, 0.003578
211.000000, 0.003477
212.000000, 0.003418
213.000000, 0.003198
214.000000, 0.003240
215.000000, 0.003427
216.000000, 0.003174
217.000000, 0.003134
218.000000, 0.002788
219.000000, 0.002980
220.000000, 0.002999
221.000000, 0.002940
222.000000, 0.002841
223.000000, 0.003015
224.000000, 0.002997
225.000000, 0.003035
226.000000, 0.003155
227.000000, 0.002978
228.000000, 0.003020
229.000000, 0.003088
230.000000, 0.003109
231.000000, 0.003177
232.000000, 0.003097
233.000000, 0.002955
234.000000, 0.002962
235.000000, 0.003089
236.000000, 0.002944
237.000000, 0.002764
238.000000, 0.002965
239.000000, 0.002854
240.000000, 0.002844
241.000000, 0.003079
242.000000, 0.002869
243.000000, 0.002748
244.000000, 0.002610
245.000000, 0.002970
246.000000, 0.002687
247.000000, 0.002778
248.000000, 0.002665
249.000000, 0.002598
250.000000, 0.002611
251.000000, 0.002636
252.000000, 0.002806
253.000000, 0.002590
254.000000, 0.002549
255.000000, 0.002790
256.000000, 0.002669
257.000000, 0.002626
258.000000, 0.002498
259.000000, 0.002670
260.000000, 0.002694
261.000000, 0.002618
262.000000, 0.002507
263.000000, 0.002272
264.000000, 0.002431
265.000000, 0.002603
266.000000, 0.002469
267.000000, 0.002630
268.000000, 0.002343
269.000000, 0.002363
270.000000, 0.002396
271.000000, 0.002297
272.000000, 0.002243
273.000000, 0.002536
274.000000, 0.002171
275.000000, 0.002176
276.000000, 0.002315
277.000000, 0.002317
278.000000, 0.002249
279.000000, 0.002164
280.000000, 0.002363
281.000000, 0.002018
282.000000, 0.002074
283.000000, 0.002226
284.000000, 0.002124
285.000000, 0.002095
286.000000, 0.002086
287.000000, 0.001813
288.000000, 0.001928
289.000000, 0.002232
290.000000, 0.001639
291.000000, 0.002058
292.000000, 0.001744
293.000000, 0.001379
294.000000, 0.002103
295.000000, 0.001592
296.000000, 0.001603
297.000000, 0.001162
298.000000, 0.001248
299.000000, 0.001518
300.000000, 0.001432
301.000000, 0.001344
302.000000, 0.001180
303.000000, 0.001161
304.000000, 0.001138
305.000000, 0.000956
306.000000, 0.000891
307.000000, 0.000803
308.000000, 0.000819
309.000000, 0.000812
310.000000, 0.000599
311.000000, 0.000571
312.000000, 0.000542
313.000000, 0.000380
314.000000, 0.000273
315.000000, 0.000695
316.000000, 0.000490
317.000000, 0.000464
318.000000, 0.000251
319.000000, 0.000422
320.000000, 0.000530
321.000000, 0.000136
322.000000, 0.000234
323.000000, 0.000248
324.000000, 0.000491
325.000000, 0.000150
326.000000, 0.000245
327.000000, 0.000206
328.000000, 0.000173
329.000000, 0.000557
330.000000, 0.000088
331.000000, 0.000187
332.000000, 0.000510
333.000000, 0.000115
334.000000, 0.000102
335.000000, 0.000159
336.000000, 0.000194
337.000000, 0.000199
338.000000, 0.000080
339.000000, 0.000051
340.000000, 0.000252
341.000000, 0.000181
342.000000, 0.000059
343.000000, 0.000148
344.000000, 0.000291
345.000000, 0.000202
346.000000, 0.000155
347.000000, 0.000080
348.000000, 0.000065
349.000000, -0.000689
350.000000, 0.000306
351.000000, 0.000064
352.000000, -0.000015
353.000000, 0.000251
354.000000, 0.000027
355.000000, 0.000080
356.000000, 0.000066
357.000000, 0.000139
358.000000, 0.000207
359.000000, 0.000067
360.000000, 0.000301
361.000000, -0.000014
362.000000, 0.000303
363.000000, 0.000803
364.000000, 0.001264
365.000000, 0.002461
366.000000, 0.004576
367.000000, 0.007835
368.000000, 0.013517
369.000000, 0.022624
370.000000, 0.036588
371.000000, 0.056970
372.000000, 0.084771
373.000000, 0.122820
374.000000, 0.167886
375.000000, 0.210882
376.000000, 0.235675
377.000000, 0.230866
378.000000, 0.205303
379.000000, 0.174201
380.000000, 0.146430
381.000000, 0.115151
382.000000, 0.080582
383.000000, 0.049194
384.000000, 0.025453
385.000000, 0.010504
386.000000, 0.003021
387.000000, 0.000826
388.000000, 0.000181
389.000000, 0.000322
390.000000, 0.000224
391.000000, 0.000292
392.000000, 0.000143
393.000000, 0.000175
394.000000, 0.000243
395.000000, -0.000022
396.000000, 0.000010
397.000000, 0.000247
398.000000, 0.000200
399.000000, 0.000406
400.000000, 0.000069
401.000000, 0.000228
402.000000, 0.000032
403.000000, 0.000188
404.000000, 0.000217
405.000000, 0.000011
406.000000, 0.000077
407.000000, 0.000181
408.000000, 0.000356
409.000000, 0.000087
410.000000, 0.000153
411.000000, 0.000051
412.000000, 0.000104
413.000000, 0.000795
414.000000, 0.007155
415.000000, 0.016094
416.000000, 0.016082
417.000000, 0.016258
418.000000, 0.102802
419.000000, 1.343156
420.000000, 3.401128
421.000000, 4.252436
422.000000, 5.318753
423.000000, 9.569344
424.000000, 14.598884
425.000000, 16.427898
426.000000, 16.035648
427.000000, 16.962021
428.000000, 20.372145
429.000000, 22.620142
430.000000, 20.840565
431.000000, 19.644388
432.000000, 24.722715
433.000000, 31.276175
434.000000, 30.006990
435.000000, 23.842093
436.000000, 23.462585
437.000000, 30.720251
438.000000, 35.663612
439.000000, 32.155464
440.000000, 28.404575
441.000000, 34.220928
442.000000, 44.208237
443.000000, 44.156651
444.000000, 34.392784
445.000000, 29.138464
446.000000, 34.907742
447.000000, 43.221447
448.000000, 42.299438
449.000000, 33.910496
450.000000, 30.562628
451.000000, 38.208260
452.000000, 48.913269
453.000000, 48.593243
454.000000, 37.986668
455.000000, 31.073734
456.000000, 35.784798
457.000000, 47.834000
458.000000, 53.649487
459.000000, 46.392559
460.000000, 36.937683
461.000000, 37.342690
462.000000, 48.204239
463.000000, 58.180130
464.000000, 55.134235
465.000000, 43.680050
466.000000, 38.154579
467.000000, 44.521782
468.000000, 56.873798
469.000000, 60.671776
470.000000, 50.383579
471.000000, 38.076488
472.000000, 35.137428
473.000000, 43.229939
474.000000, 56.623478
475.000000, 61.874588
476.000000, 53.205387
477.000000, 41.810703
478.000000, 38.846390
479.000000, 46.826382
480.000000, 60.236992
481.000000, 66.222000
482.000000, 58.095001
483.000000, 45.880074
484.000000, 41.077847
485.000000, 46.520573
486.000000, 59.024162
487.000000, 68.233452
488.000000, 65.264420
489.000000, 55.027985
490.000000, 48.953827
491.000000, 52.480156
492.000000, 63.167744
493.000000, 70.776855
494.000000, 66.059311
495.000000, 53.074467
496.000000, 42.946079
497.000000, 41.105110
498.000000, 47.791363
499.000000, 60.506924
500.000000, 70.340134
501.000000, 68.759880
502.000000, 58.950840
503.000000, 51.226555
504.000000, 51.432831
505.000000, 59.547894
506.000000, 70.002876
507.000000, 73.354469
508.000000, 65.623100
509.000000, 54.004639
510.000000, 46.917431
511.000000, 47.296070
512.000000, 54.928429
513.000000, 66.652229
514.000000, 74.791603
515.000000, 73.385567
516.000000, 65.420792
517.000000, 59.032040
518.000000, 59.114586
519.000000, 65.454086
520.000000, 73.526520
521.000000, 75.450500
522.000000, 68.213020
523.000000, 57.174255
524.000000, 49.411648
525.000000, 47.970829
526.000000, 53.265934
527.000000, 63.598515
528.000000, 73.402008
529.000000, 74.942276
530.000000, 67.188751
531.000000, 57.077866
532.000000, 51.225227
533.000000, 51.681595
534.000000, 57.985962
535.000000, 66.897621
536.000000, 72.297668
537.000000, 69.988113
538.000000, 63.063614
539.000000, 58.315479
540.000000, 58.972668
541.000000, 60.138542
542.000000, 52.181458
543.000000, 34.487522
544.000000, 17.785627
545.000000, 8.400449
546.000000, 4.255030
547.000000, 2.468895
548.000000, 1.611876
549.000000, 1.158308
550.000000, 0.907257
551.000000, 0.769962
552.000000, 0.705330
553.000000, 0.700923
554.000000, 0.763538
555.000000, 0.936092
556.000000, 1.374166
557.000000, 2.799513
558.000000, 7.031690
559.000000, 11.427335
560.000000, 9.707604
561.000000, 4.272119
562.000000, 1.175290
563.000000, 0.464792
564.000000, 0.242911
565.000000, 0.146873
566.000000, 0.098227
567.000000, 0.069969
568.000000, 0.053242
569.000000, 0.042416
570.000000, 0.035510
571.000000, 0.031426
572.000000, 0.028906
573.000000, 0.027824
574.000000, 0.027573
575.000000, 0.029497
576.000000, 0.033069
577.000000, 0.038922
578.000000, 0.049169
579.000000, 0.068015
580.000000, 0.104659
581.000000, 0.191827
582.000000, 0.500375
583.000000, 2.698895
584.000000, 7.981710
585.000000, 10.284960
586.000000, 5.709079
587.000000, 1.567317
588.000000, 0.716761
589.000000, 0.539264
590.000000, 0.507019
591.000000, 0.562369
592.000000, 0.721660
593.000000, 1.095228
594.000000, 1.981236
595.000000, 3.882895
596.000000, 6.248152
597.000000, 6.989295
598.000000, 5.473452
599.000000, 3.572562
600.000000, 2.510618
601.000000, 2.102674
602.000000, 2.073139
603.000000, 2.368022
604.000000, 3.132120
605.000000, 4.795619
606.000000, 8.273141
607.000000, 13.550814
608.000000, 17.429674
609.000000, 16.371246
610.000000, 12.118461
611.000000, 8.447887
612.000000, 6.573504
613.000000, 5.913242
614.000000, 6.083226
615.000000, 7.099088
616.000000, 9.376500
617.000000, 13.875736
618.000000, 21.653847
619.000000, 31.753868
620.000000, 38.427460
621.000000, 36.936275
622.000000, 30.120239
623.000000, 23.806728
624.000000, 20.199244
625.000000, 19.153318
626.000000, 20.215143
627.000000, 23.444860
628.000000, 29.127163
629.000000, 37.052036
630.000000, 45.238468
631.000000, 49.953358
632.000000, 49.157124
633.000000, 44.386868
634.000000, 39.066360
635.000000, 35.424496
636.000000, 34.152630
637.000000, 35.290283
638.000000, 38.917061
639.000000, 45.077305
640.000000, 53.277077
641.000000, 61.630093
642.000000, 67.303665
643.000000, 68.007744
644.000000, 64.296906
645.000000, 58.741497
646.000000, 53.856461
647.000000, 50.955349
648.000000, 50.428741
649.000000, 52.252525
650.000000, 56.256550
651.000000, 61.818237
652.000000, 67.705864
653.000000, 72.097221
654.000000, 73.345284
655.000000, 71.135239
656.000000, 66.635551
657.000000, 61.623173
658.000000, 57.506973
659.000000, 55.014908
660.000000, 54.423546
661.000000, 55.774765
662.000000, 58.931595
663.000000, 63.748711
664.000000, 69.609138
665.000000, 75.492729
666.000000, 80.131058
667.000000, 82.427193
668.000000, 82.099442
669.000000, 79.789810
670.000000, 76.639877
671.000000, 73.708252
672.000000, 71.718651
673.000000, 70.942863
674.000000, 71.453941
675.000000, 73.016777
676.000000, 75.272743
677.000000, 77.667511
678.000000, 79.595879
679.000000, 80.583809
680.000000, 80.413757
681.000000, 79.266426
682.000000, 77.548721
683.000000, 75.772820
684.000000, 74.423454
685.000000, 73.779335
686.000000, 73.975639
687.000000, 75.059929
688.000000, 76.853363
689.000000, 79.142990
690.000000, 81.551971
691.000000, 83.696724
692.000000, 85.228745
693.000000, 85.939034
694.000000, 85.876381
695.000000, 85.211792
696.000000, 84.280487
697.000000, 83.401527
698.000000, 82.830544
699.000000, 82.698318
700.000000, 83.071007
701.000000, 83.820496
702.000000, 84.809914
703.000000, 85.794350
704.000000, 86.500458
705.000000, 86.761765
706.000000, 86.462029
707.000000, 85.629120
708.000000, 84.433174
709.000000, 83.081291
710.000000, 81.823700
711.000000, 80.858856
712.000000, 80.322670
713.000000, 80.301758
714.000000, 80.768433
715.000000, 81.687035
716.000000, 82.878151
717.000000, 84.199570
718.000000, 85.435066
719.000000, 86.392143
720.000000, 86.935898
721.000000, 86.989388
722.000000, 86.584602
723.000000, 85.843719
724.000000, 84.937408
725.000000, 84.014992
726.000000, 83.226738
727.000000, 82.707153
728.000000, 82.497223
729.000000, 82.577934
730.000000, 82.953423
731.000000, 83.530602
732.000000, 84.195457
733.000000, 84.857399
734.000000, 85.389320
735.000000, 85.746857
736.000000, 85.869339
737.000000, 85.772537
738.000000, 85.501930
739.000000, 85.145767
740.000000, 84.762360
741.000000, 84.437157
742.000000, 84.224251
743.000000, 84.199974
744.000000, 84.324905
745.000000, 84.633484
746.000000, 85.075249
747.000000, 85.556435
748.000000, 86.076370
749.000000, 86.518654
750.000000, 86.885223
751.000000, 87.127708
752.000000, 87.263039
753.000000, 87.259064
754.000000, 87.185043
755.000000, 87.088531
756.000000, 86.996742
757.000000, 86.944077
758.000000, 86.974998
759.000000, 87.079811
760.000000, 87.257004
761.000000, 87.510643
762.000000, 87.765572
763.000000, 88.033936
764.000000, 88.257904
765.000000, 88.392258
766.000000, 88.457115
767.000000, 88.431366
768.000000, 88.312080
769.000000, 88.133041
770.000000, 87.924408
771.000000, 87.700417
772.000000, 87.528511
773.000000, 87.408676
774.000000, 87.367004
775.000000, 87.385811
776.000000, 87.486664
777.000000, 87.655609
778.000000, 87.865791
779.000000, 88.120880
780.000000, 88.356178
781.000000, 88.551888
782.000000, 88.708275
783.000000, 88.831467
784.000000, 88.866219
785.000000, 88.850174
786.000000, 88.781998
787.000000, 88.703354
788.000000, 88.598549
789.000000, 88.491661
790.000000, 88.423943
791.000000, 88.406883
792.000000, 88.411987
793.000000, 88.437561
794.000000, 88.511063
795.000000, 88.601921
796.000000, 88.710579
797.000000, 88.778618
798.000000, 88.835396
799.000000, 88.888344
800.000000, 88.951164
801.000000, 88.956696
802.000000, 88.952759
803.000000, 88.947662
804.000000, 88.932075
805.000000, 88.917099
806.000000, 88.904175
807.000000, 88.897781
808.000000, 88.902199
809.000000, 88.908035
810.000000, 88.928436
811.000000, 88.950623
812.000000, 88.974197
813.000000, 88.993164
814.000000, 89.000626
815.000000, 89.012329
816.000000, 88.999107
817.000000, 88.975319
818.000000, 88.940498
819.000000, 88.891121
820.000000, 88.840515
821.000000, 88.790749
822.000000, 88.740303
823.000000, 88.694672
824.000000, 88.672829
825.000000, 88.656960
826.000000, 88.665779
827.000000, 88.687439
828.000000, 88.725365
829.000000, 88.772110
830.000000, 88.824486
831.000000, 88.874588
832.000000, 88.928780
833.000000, 88.957367
834.000000, 88.978569
835.000000, 88.978394
836.000000, 88.951210
837.000000, 88.902718
838.000000, 88.842278
839.000000, 88.764481
840.000000, 88.684685
841.000000, 88.602898
842.000000, 88.524979
843.000000, 88.452805
844.000000, 88.400848
845.000000, 88.365410
846.000000, 88.354599
847.000000, 88.368446
848.000000, 88.402206
849.000000, 88.452461
850.000000, 88.522263
851.000000, 88.599190
852.000000, 88.684341
853.000000, 88.761703
854.000000, 88.834236
855.000000, 88.891098
856.000000, 88.930679
857.000000, 88.950050
858.000000, 88.953552
859.000000, 88.935822
860.000000, 88.909599
861.000000, 88.863907
862.000000, 88.826370
863.000000, 88.775078
864.000000, 88.734100
865.000000, 88.697044
866.000000, 88.675606
867.000000, 88.659843
868.000000, 88.662926
869.000000, 88.676224
870.000000, 88.700905
871.000000, 88.733482
872.000000, 88.770470
873.000000, 88.806229
874.000000, 88.839737
875.000000, 88.871216
876.000000, 88.889931
877.000000, 88.899467
878.000000, 88.904480
879.000000, 88.897362
880.000000, 88.883812
881.000000, 88.866074
882.000000, 88.837151
883.000000, 88.814529
884.000000, 88.798874
885.000000, 88.777786
886.000000, 88.768837
887.000000, 88.756981
888.000000, 88.739800
889.000000, 88.735077
890.000000, 88.721634
891.000000, 88.704208
892.000000, 88.681671
893.000000, 88.657356
894.000000, 88.625679
895.000000, 88.594398
896.000000, 88.562553
897.000000, 88.533012
898.000000, 88.515961
899.000000, 88.500221
900.000000, 88.498734
901.000000, 88.511063
902.000000, 88.529015
903.000000, 88.552666
904.000000, 88.578407
905.000000, 88.599136
906.000000, 88.603325
907.000000, 88.592514
908.000000, 88.558311
909.000000, 88.498009
910.000000, 88.407532
911.000000, 88.299164
912.000000, 88.172600
913.000000, 88.035370
914.000000, 87.898010
915.000000, 87.769737
916.000000, 87.664719
917.000000, 87.594765
918.000000, 87.553558
919.000000, 87.553612
920.000000, 87.588295
921.000000, 87.660370
922.000000, 87.742577
923.000000, 87.837456
924.000000, 87.933144
925.000000, 88.017120
926.000000, 88.072708
927.000000, 88.101097
928.000000, 88.094467
929.000000, 88.055145
930.000000, 87.971672
931.000000, 87.863846
932.000000, 87.713669
933.000000, 87.513359
934.000000, 87.250397
935.000000, 86.930000
936.000000, 86.545105
937.000000, 86.091888
938.000000, 85.622841
939.000000, 85.147156
940.000000, 84.715424
941.000000, 84.427788
942.000000, 84.284790
943.000000, 84.274414
944.000000, 84.269806
945.000000, 83.977318
946.000000, 82.754341
947.000000, 79.792023
948.000000, 74.409081
949.000000, 65.811768
950.000000, 54.848122
951.000000, 42.662697
952.000000, 30.742201
953.000000, 20.620874
954.000000, 13.417192
955.000000, 8.371801
956.000000, 5.078809
957.000000, 3.123222
958.000000, 1.873862
959.000000, 1.117205
960.000000, 0.690313
961.000000, 0.428368
962.000000, 0.273297
963.000000, 0.182527
964.000000, 0.127339
965.000000, 0.092842
966.000000, 0.068514
967.000000, 0.057575
968.000000, 0.048562
969.000000, 0.042008
970.000000, 0.040391
971.000000, 0.034351
972.000000, 0.035681
973.000000, 0.033840
974.000000, 0.033077
975.000000, 0.032992
976.000000, 0.033260
977.000000, 0.031865
978.000000, 0.032691
979.000000, 0.031290
980.000000, 0.031759
981.000000, 0.031560
982.000000, 0.031692
983.000000, 0.031472
984.000000, 0.030450
985.000000, 0.029771
986.000000, 0.031513
987.000000, 0.032126
988.000000, 0.031118
989.000000, 0.031220
990.000000, 0.030752
991.000000, 0.030923
992.000000, 0.030589
993.000000, 0.029653
994.000000, 0.030549
995.000000, 0.030023
996.000000, 0.033327
997.000000, 0.028952
998.000000, 0.031026
999.000000, 0.029691
1000.000000, 0.030131
1001.000000, 0.031543
1002.000000, 0.030482
1003.000000, 0.031247
1004.000000, 0.033494
1005.000000, 0.032411
1006.000000, 0.030008
1007.000000, 0.032482
1008.000000, 0.030076
1009.000000, 0.033138
1010.000000, 0.031428
1011.000000, 0.030820
1012.000000, 0.031118
1013.000000, 0.031677
1014.000000, 0.028127
1015.000000, 0.031217
1016.000000, 0.030792
1017.000000, 0.029475
1018.000000, 0.031685
1019.000000, 0.030127
1020.000000, 0.029172
1021.000000, 0.031753
1022.000000, 0.033645
1023.000000, 0.031620
1024.000000, 0.028717
1025.000000, 0.028126
1026.000000, 0.032315
1027.000000, 0.028030
1028.000000, 0.032755
1029.000000, 0.029936
1030.000000, 0.033064
1031.000000, 0.032439
1032.000000, 0.031992
1033.000000, 0.030728
1034.000000, 0.030979
1035.000000, 0.031782
1036.000000, 0.028392
1037.000000, 0.028874
1038.000000, 0.031887
1039.000000, 0.032483
1040.000000, 0.030953
1041.000000, 0.028103
1042.000000, 0.031568
1043.000000, 0.029014
1044.000000, 0.030519
1045.000000, 0.029386
1046.000000, 0.033790
1047.000000, 0.030379
1048.000000, 0.029040
1049.000000, 0.030860
1050.000000, 0.031121
1051.000000, 0.030360
1052.000000, 0.031381
1053.000000, 0.030912
1054.000000, 0.031526
1055.000000, 0.032819
1056.000000, 0.028386
1057.000000, 0.032233
1058.000000, 0.029406
1059.000000, 0.028981
1060.000000, 0.030088
1061.000000, 0.028720
1062.000000, 0.029600
1063.000000, 0.028050
1064.000000, 0.028943
1065.000000, 0.033624
1066.000000, 0.030205
1067.000000, 0.031247
1068.000000, 0.032040
1069.000000, 0.030974
1070.000000, 0.030888
1071.000000, 0.029925
1072.000000, 0.031360
1073.000000, 0.030938
1074.000000, 0.027763
1075.000000, 0.028736
1076.000000, 0.031489
1077.000000, 0.031007
1078.000000, 0.032094
1079.000000, 0.029174
1080.000000, 0.031036
1081.000000, 0.031375
