# Wavelength  (nm), Transmission (%)
200.000000, 0.000721
201.000000, 0.000396
202.000000, 0.000388
203.000000, 0.000640
204.000000, 0.000875
205.000000, 0.000391
206.000000, 0.000577
207.000000, 0.000321
208.000000, 0.000160
209.000000, 0.000420
210.000000, 0.000593
211.000000, 0.000251
212.000000, 0.000506
213.000000, 0.000477
214.000000, 0.000473
215.000000, 0.000489
216.000000, 0.000539
217.000000, 0.000571
218.000000, 0.000353
219.000000, 0.000444
220.000000, 0.000521
221.000000, 0.000480
222.000000, 0.000578
223.000000, 0.000483
224.000000, 0.000352
225.000000, 0.000405
226.000000, 0.000425
227.000000, 0.000567
228.000000, 0.000506
229.000000, 0.000550
230.000000, 0.000299
231.000000, 0.000412
232.000000, 0.000505
233.000000, 0.000578
234.000000, 0.000517
235.000000, 0.000380
236.000000, 0.000149
237.000000, 0.000522
238.000000, 0.000558
239.000000, 0.000566
240.000000, 0.000380
241.000000, 0.000433
242.000000, 0.000266
243.000000, 0.000376
244.000000, 0.000254
245.000000, 0.000429
246.000000, 0.000388
247.000000, 0.000457
248.000000, 0.000193
249.000000, 0.000279
250.000000, 0.000254
251.000000, 0.000360
252.000000, 0.000327
253.000000, 0.000214
254.000000, 0.000206
255.000000, 0.000197
256.000000, 0.000108
257.000000, 0.000234
258.000000, 0.000307
259.000000, 0.000072
260.000000, 0.000008
261.000000, 0.000181
262.000000, 0.000193
263.000000, 0.000306
264.000000, 0.000331
265.000000, 0.000193
266.000000, 0.000056
267.000000, 0.000206
268.000000, 0.000246
269.000000, 0.000290
270.000000, 0.000351
271.000000, 0.000214
272.000000, 0.000109
273.000000, 0.000092
274.000000, 0.000258
275.000000, 0.000254
276.000000, 0.000440
277.000000, 0.000068
278.000000, 0.000177
279.000000, 0.000351
280.000000, 0.000339
281.000000, 0.000322
282.000000, 0.000383
283.000000, 0.000169
284.000000, 0.000226
285.000000, 0.000346
286.000000, 0.000459
287.000000, 0.000415
288.000000, 0.000447
289.000000, 0.000153
290.000000, 0.000278
291.000000, 0.000434
292.000000, 0.000470
293.000000, 0.000470
294.000000, 0.000438
295.000000, 0.000362
296.000000, 0.000486
297.000000, 0.000454
298.000000, 0.000650
299.000000, 0.000606
300.000000, 0.000458
301.000000, 0.000194
302.000000, 0.000429
303.000000, 0.000553
304.000000, 0.000497
305.000000, 0.000453
306.000000, 0.000393
307.000000, 0.000501
308.000000, 0.000273
309.000000, 0.000576
310.000000, 0.000532
311.000000, 0.000512
312.000000, 0.000456
313.000000, 0.000432
314.000000, 0.000222
315.000000, 0.000559
316.000000, 0.000479
317.000000, 0.000404
318.000000, 0.000360
319.000000, 0.000277
320.000000, 0.000222
321.000000, 0.000445
322.000000, 0.000401
323.000000, 0.000357
324.000000, 0.000337
325.000000, 0.000377
326.000000, 0.000226
327.000000, 0.000393
328.000000, 0.000452
329.000000, 0.000301
330.000000, 0.000377
331.000000, 0.000237
332.000000, 0.000210
333.000000, 0.000396
334.000000, 0.000448
335.000000, 0.000202
336.000000, 0.000376
337.000000, 0.000237
338.000000, 0.000150
339.000000, 0.000325
340.000000, 0.000321
341.000000, 0.000229
342.000000, 0.000329
343.000000, 0.000182
344.000000, 0.000150
345.000000, 0.000328
346.000000, 0.000392
347.000000, 0.000237
348.000000, 0.000289
349.000000, 0.000210
350.000000, 0.000095
351.000000, 0.000289
352.000000, 0.000265
353.000000, 0.000190
354.000000, 0.000218
355.000000, 0.000257
356.000000, 0.000099
357.000000, 0.000348
358.000000, 0.000241
359.000000, 0.000178
360.000000, 0.000296
361.000000, 0.000206
362.000000, 0.000032
363.000000, 0.000359
364.000000, 0.000273
365.000000, 0.000214
366.000000, 0.000257
367.000000, 0.000214
368.000000, 0.000072
369.000000, 0.000312
370.000000, 0.000229
371.000000, 0.000202
372.000000, 0.000257
373.000000, 0.000214
374.000000, 0.000049
375.000000, 0.000374
376.000000, 0.000253
377.000000, 0.000218
378.000000, 0.000218
379.000000, 0.000288
380.000000, 0.000206
381.000000, 0.000124
382.000000, 0.000288
383.000000, 0.000194
384.000000, 0.000085
385.000000, 0.000284
386.000000, 0.000218
387.000000, 0.000167
388.000000, 0.000229
389.000000, 0.000253
390.000000, 0.000101
391.000000, 0.000299
392.000000, 0.000132
393.000000, 0.000171
394.000000, 0.000241
395.000000, 0.000264
396.000000, 0.000155
397.000000, 0.000272
398.000000, 0.000124
399.000000, 0.000183
400.000000, 0.000229
401.000000, 0.000186
402.000000, 0.000117
403.000000, 0.000376
404.000000, 0.000229
405.000000, 0.000245
406.000000, 0.000252
407.000000, 0.000175
408.000000, 0.000113
409.000000, 0.000279
410.000000, 0.000167
411.000000, 0.000229
412.000000, 0.000341
413.000000, 0.000160
414.000000, 0.000167
415.000000, 0.000237
416.000000, 0.000129
417.000000, 0.000268
418.000000, 0.000310
419.000000, 0.000148
420.000000, 0.000202
421.000000, 0.000260
422.000000, 0.000164
423.000000, 0.000210
424.000000, 0.000267
425.000000, 0.000252
426.000000, 0.000160
427.000000, 0.000333
428.000000, 0.000267
429.000000, 0.000248
430.000000, 0.000313
431.000000, 0.000148
432.000000, 0.000137
433.000000, 0.000294
434.000000, 0.000248
435.000000, 0.000214
436.000000, 0.000306
437.000000, 0.000194
438.000000, 0.000152
439.000000, 0.000267
440.000000, 0.000237
441.000000, 0.000244
442.000000, 0.000233
443.000000, 0.000095
444.000000, 0.000225
445.000000, 0.000240
446.000000, 0.000172
447.000000, 0.000206
448.000000, 0.000286
449.000000, 0.000133
450.000000, 0.000153
451.000000, 0.000236
452.000000, 0.000221
453.000000, 0.000225
454.000000, 0.000286
455.000000, 0.000149
456.000000, 0.000172
457.000000, 0.000305
458.000000, 0.000271
459.000000, 0.000214
460.000000, 0.000275
461.000000, 0.000149
462.000000, 0.000183
463.000000, 0.000240
464.000000, 0.000145
465.000000, 0.000206
466.000000, 0.000282
467.000000, 0.000141
468.000000, 0.000138
469.000000, 0.000210
470.000000, 0.000138
471.000000, 0.000206
472.000000, 0.000290
473.000000, 0.000164
474.000000, 0.000160
475.000000, 0.000229
476.000000, 0.000134
477.000000, 0.000202
478.000000, 0.000217
479.000000, 0.000126
480.000000, 0.000195
481.000000, 0.000210
482.000000, 0.000123
483.000000, 0.000191
484.000000, 0.000282
485.000000, 0.000176
486.000000, 0.000187
487.000000, 0.000229
488.000000, 0.000142
489.000000, 0.000233
490.000000, 0.000278
491.000000, 0.000153
492.000000, 0.000195
493.000000, 0.000229
494.000000, 0.000180
495.000000, 0.000191
496.000000, 0.000270
497.000000, 0.000236
498.000000, 0.000248
499.000000, 0.000301
500.000000, 0.000244
501.000000, 0.000282
502.000000, 0.000244
503.000000, 0.000198
504.000000, 0.000244
505.000000, 0.000255
506.000000, 0.000229
507.000000, 0.000251
508.000000, 0.000312
509.000000, 0.000236
510.000000, 0.000270
511.000000, 0.000327
512.000000, 0.000229
513.000000, 0.000236
514.000000, 0.000319
515.000000, 0.000240
516.000000, 0.000282
517.000000, 0.000297
518.000000, 0.000233
519.000000, 0.000308
520.000000, 0.000308
521.000000, 0.000217
522.000000, 0.000304
523.000000, 0.000316
524.000000, 0.000244
525.000000, 0.000331
526.000000, 0.000315
527.000000, 0.000236
528.000000, 0.000300
529.000000, 0.000361
530.000000, 0.000274
531.000000, 0.000376
532.000000, 0.000357
533.000000, 0.000251
534.000000, 0.000323
535.000000, 0.000342
536.000000, 0.000240
537.000000, 0.000330
538.000000, 0.000334
539.000000, 0.000274
540.000000, 0.000345
541.000000, 0.000315
542.000000, 0.000259
543.000000, 0.000368
544.000000, 0.000349
545.000000, 0.000278
546.000000, 0.000364
547.000000, 0.000398
548.000000, 0.000338
549.000000, 0.000334
550.000000, 0.000285
551.000000, 0.000278
552.000000, 0.000394
553.000000, 0.000304
554.000000, 0.000202
555.000000, 0.000368
556.000000, 0.000330
557.000000, 0.000244
558.000000, 0.000390
559.000000, 0.000304
560.000000, 0.000206
561.000000, 0.000311
562.000000, 0.000270
563.000000, 0.000338
564.000000, 0.000278
565.000000, 0.000293
566.000000, 0.000394
567.000000, 0.000293
568.000000, 0.000225
569.000000, 0.000383
570.000000, 0.000278
571.000000, 0.000289
572.000000, 0.000375
573.000000, 0.000293
574.000000, 0.000274
575.000000, 0.000383
576.000000, 0.000281
577.000000, 0.000251
578.000000, 0.000338
579.000000, 0.000304
580.000000, 0.000285
581.000000, 0.000383
582.000000, 0.000334
583.000000, 0.000304
584.000000, 0.000405
585.000000, 0.000308
586.000000, 0.000251
587.000000, 0.000371
588.000000, 0.000319
589.000000, 0.000274
590.000000, 0.000424
591.000000, 0.000379
592.000000, 0.000349
593.000000, 0.000371
594.000000, 0.000330
595.000000, 0.000266
596.000000, 0.000416
597.000000, 0.000292
598.000000, 0.000304
599.000000, 0.000364
600.000000, 0.000319
601.000000, 0.000244
602.000000, 0.000386
603.000000, 0.000296
604.000000, 0.000364
605.000000, 0.000446
606.000000, 0.000341
607.000000, 0.000217
608.000000, 0.000337
609.000000, 0.000330
610.000000, 0.000337
611.000000, 0.000409
612.000000, 0.000375
613.000000, 0.000311
614.000000, 0.000420
615.000000, 0.000247
616.000000, 0.000345
617.000000, 0.000401
618.000000, 0.000379
619.000000, 0.000307
620.000000, 0.000450
621.000000, 0.000345
622.000000, 0.000285
623.000000, 0.000409
624.000000, 0.000326
625.000000, 0.000337
626.000000, 0.000394
627.000000, 0.000360
628.000000, 0.000330
629.000000, 0.000412
630.000000, 0.000334
631.000000, 0.000375
632.000000, 0.000465
633.000000, 0.000401
634.000000, 0.000341
635.000000, 0.000498
636.000000, 0.000277
637.000000, 0.000333
638.000000, 0.000483
639.000000, 0.000367
640.000000, 0.000270
641.000000, 0.000457
642.000000, 0.000322
643.000000, 0.000360
644.000000, 0.000412
645.000000, 0.000401
646.000000, 0.000330
647.000000, 0.000475
648.000000, 0.000247
649.000000, 0.000326
650.000000, 0.000393
651.000000, 0.000378
652.000000, 0.000318
653.000000, 0.000561
654.000000, 0.000337
655.000000, 0.000378
656.000000, 0.000434
657.000000, 0.000393
658.000000, 0.000300
659.000000, 0.000516
660.000000, 0.000352
661.000000, 0.000333
662.000000, 0.000397
663.000000, 0.000426
664.000000, 0.000396
665.000000, 0.000445
666.000000, 0.000352
667.000000, 0.000355
668.000000, 0.000426
669.000000, 0.000322
670.000000, 0.000299
671.000000, 0.000370
672.000000, 0.000288
673.000000, 0.000269
674.000000, 0.000538
675.000000, 0.000269
676.000000, 0.000314
677.000000, 0.000318
678.000000, 0.000195
679.000000, 0.000240
680.000000, 0.000348
681.000000, 0.000161
682.000000, 0.000284
683.000000, 0.000269
684.000000, 0.000307
685.000000, 0.000303
686.000000, 0.000228
687.000000, 0.000013
688.000000, 0.000091
689.000000, 0.000176
690.000000, 0.000102
691.000000, 0.000054
692.000000, 0.000210
693.000000, 0.000069
694.000000, 0.000143
695.000000, 0.000225
696.000000, 0.000206
697.000000, 0.000073
698.000000, 0.000299
699.000000, 0.000188
700.000000, 0.000266
701.000000, 0.000299
702.000000, 0.000340
703.000000, 0.000162
704.000000, 0.000447
705.000000, 0.000310
706.000000, 0.000417
707.000000, 0.000395
708.000000, 0.000462
709.000000, 0.000413
710.000000, 0.000525
711.000000, 0.000391
712.000000, 0.000458
713.000000, 0.000535
714.000000, 0.000461
715.000000, 0.000328
716.000000, 0.000565
717.000000, 0.000384
718.000000, 0.000502
719.000000, 0.000498
720.000000, 0.000535
721.000000, 0.000335
722.000000, 0.000546
723.000000, 0.000406
724.000000, 0.000483
725.000000, 0.000564
726.000000, 0.000468
727.000000, 0.000387
728.000000, 0.000479
729.000000, 0.000365
730.000000, 0.000453
731.000000, 0.000398
732.000000, 0.000276
733.000000, 0.000155
734.000000, 0.000280
735.000000, 0.000250
736.000000, 0.000339
737.000000, 0.000522
738.000000, 0.000427
739.000000, 0.000500
740.000000, 0.000526
741.000000, 0.000482
742.000000, 0.000537
743.000000, 0.000592
744.000000, 0.000456
745.000000, 0.000503
746.000000, 0.000577
747.000000, 0.000547
748.000000, 0.000492
749.000000, 0.000635
750.000000, 0.000444
751.000000, 0.000540
752.000000, 0.000551
753.000000, 0.000569
754.000000, 0.000539
755.000000, 0.000653
756.000000, 0.000444
757.000000, 0.000609
758.000000, 0.000543
759.000000, 0.000557
760.000000, 0.000495
761.000000, 0.000601
762.000000, 0.000455
763.000000, 0.000542
764.000000, 0.000447
765.000000, 0.000414
766.000000, 0.000370
767.000000, 0.000330
768.000000, 0.000144
769.000000, 0.000305
770.000000, 0.000421
771.000000, 0.000501
772.000000, 0.000516
773.000000, 0.000625
774.000000, 0.000523
775.000000, 0.000596
776.000000, 0.000567
777.000000, 0.000534
778.000000, 0.000548
779.000000, 0.000628
780.000000, 0.000566
781.000000, 0.000555
782.000000, 0.000559
783.000000, 0.000580
784.000000, 0.000631
785.000000, 0.000624
786.000000, 0.000566
787.000000, 0.000565
788.000000, 0.000591
789.000000, 0.000529
790.000000, 0.000612
791.000000, 0.000619
792.000000, 0.000579
793.000000, 0.000579
794.000000, 0.000644
795.000000, 0.000565
796.000000, 0.000623
797.000000, 0.000651
798.000000, 0.000691
799.000000, 0.000532
800.000000, 0.000713
801.000000, 0.000611
802.000000, 0.000658
803.000000, 0.000629
804.000000, 0.000629
805.000000, 0.000604
806.000000, 0.000643
807.000000, 0.000564
808.000000, 0.000593
809.000000, 0.000564
810.000000, 0.000603
811.000000, 0.000657
812.000000, 0.000722
813.000000, 0.000653
814.000000, 0.000621
815.000000, 0.000643
816.000000, 0.000596
817.000000, 0.000653
818.000000, 0.000754
819.000000, 0.000679
820.000000, 0.000610
821.000000, 0.000625
822.000000, 0.000639
823.000000, 0.000621
824.000000, 0.000708
825.000000, 0.000668
826.000000, 0.000693
827.000000, 0.000639
828.000000, 0.000589
829.000000, 0.000618
830.000000, 0.000741
831.000000, 0.000741
832.000000, 0.000752
833.000000, 0.000658
834.000000, 0.000633
835.000000, 0.000659
836.000000, 0.000786
837.000000, 0.000746
838.000000, 0.000728
839.000000, 0.000707
840.000000, 0.000685
841.000000, 0.000668
842.000000, 0.000791
843.000000, 0.000759
844.000000, 0.000752
845.000000, 0.000687
846.000000, 0.000640
847.000000, 0.000636
848.000000, 0.000760
849.000000, 0.000754
850.000000, 0.000721
851.000000, 0.000732
852.000000, 0.000681
853.000000, 0.000692
854.000000, 0.000711
855.000000, 0.000674
856.000000, 0.000671
857.000000, 0.000747
858.000000, 0.000729
859.000000, 0.000719
860.000000, 0.000425
861.000000, 0.000535
862.000000, 0.000858
863.000000, 0.000789
864.000000, 0.000710
865.000000, 0.000604
866.000000, 0.000619
867.000000, 0.000753
868.000000, 0.000842
869.000000, 0.000860
870.000000, 0.000768
871.000000, 0.000580
872.000000, 0.000513
873.000000, 0.000654
874.000000, 0.000747
875.000000, 0.000745
876.000000, 0.000723
877.000000, 0.000719
878.000000, 0.000735
879.000000, 0.000701
880.000000, 0.000647
881.000000, 0.000679
882.000000, 0.000732
883.000000, 0.000735
884.000000, 0.000793
885.000000, 0.000836
886.000000, 0.000693
887.000000, 0.000550
888.000000, 0.000614
889.000000, 0.000724
890.000000, 0.000740
891.000000, 0.000731
892.000000, 0.000730
893.000000, 0.000747
894.000000, 0.000735
895.000000, 0.000621
896.000000, 0.000634
897.000000, 0.000730
898.000000, 0.000746
899.000000, 0.000750
900.000000, 0.000755
901.000000, 0.000744
902.000000, 0.000748
903.000000, 0.000724
904.000000, 0.000653
905.000000, 0.000588
906.000000, 0.000638
907.000000, 0.000750
908.000000, 0.000723
909.000000, 0.000607
910.000000, 0.000637
911.000000, 0.000714
912.000000, 0.000796
913.000000, 0.000907
914.000000, 0.000785
915.000000, 0.000606
916.000000, 0.000647
917.000000, 0.000685
918.000000, 0.000720
919.000000, 0.000751
920.000000, 0.000734
921.000000, 0.000751
922.000000, 0.000734
923.000000, 0.000660
924.000000, 0.000571
925.000000, 0.000655
926.000000, 0.000723
927.000000, 0.000764
928.000000, 0.000858
929.000000, 0.000797
930.000000, 0.000667
931.000000, 0.000555
932.000000, 0.000665
933.000000, 0.000732
934.000000, 0.000726
935.000000, 0.000699
936.000000, 0.000689
937.000000, 0.000705
938.000000, 0.000731
939.000000, 0.000712
940.000000, 0.000708
941.000000, 0.000698
942.000000, 0.000718
943.000000, 0.000716
944.000000, 0.000742
945.000000, 0.000811
946.000000, 0.000714
947.000000, 0.000581
948.000000, 0.000732
949.000000, 0.000891
950.000000, 0.000837
951.000000, 0.000667
952.000000, 0.000575
953.000000, 0.000685
954.000000, 0.000732
955.000000, 0.000758
956.000000, 0.000692
957.000000, 0.000621
958.000000, 0.000676
959.000000, 0.000698
960.000000, 0.000752
961.000000, 0.000738
962.000000, 0.000751
963.000000, 0.000753
964.000000, 0.000602
965.000000, 0.000704
966.000000, 0.000753
967.000000, 0.000774
968.000000, 0.000787
969.000000, 0.000720
970.000000, 0.000581
971.000000, 0.000693
972.000000, 0.000723
973.000000, 0.000702
974.000000, 0.000712
975.000000, 0.000724
976.000000, 0.000697
977.000000, 0.000743
978.000000, 0.000710
979.000000, 0.000792
980.000000, 0.000833
981.000000, 0.000713
982.000000, 0.000668
983.000000, 0.000703
984.000000, 0.000799
985.000000, 0.000690
986.000000, 0.000707
987.000000, 0.000798
988.000000, 0.000658
989.000000, 0.000626
990.000000, 0.000639
991.000000, 0.000710
992.000000, 0.000859
993.000000, 0.000714
994.000000, 0.000644
995.000000, 0.000693
996.000000, 0.000808
997.000000, 0.000736
998.000000, 0.000680
999.000000, 0.000681
1000.000000, 0.000745
1001.000000, 0.000938
1002.000000, 0.000710
1003.000000, 0.000702
1004.000000, 0.000684
1005.000000, 0.000693
1006.000000, 0.000711
1007.000000, 0.000724
1008.000000, 0.000726
1009.000000, 0.000717
1010.000000, 0.000724
1011.000000, 0.000764
1012.000000, 0.000681
1013.000000, 0.000711
1014.000000, 0.000707
1015.000000, 0.000761
1016.000000, 0.000757
1017.000000, 0.000738
1018.000000, 0.000681
1019.000000, 0.000697
1020.000000, 0.000706
1021.000000, 0.000705
1022.000000, 0.000725
1023.000000, 0.000733
1024.000000, 0.000713
1025.000000, 0.000694
1026.000000, 0.000712
1027.000000, 0.000734
1028.000000, 0.000704
1029.000000, 0.000724
1030.000000, 0.000696
1031.000000, 0.000772
1032.000000, 0.000714
1033.000000, 0.000730
1034.000000, 0.000691
1035.000000, 0.000673
1036.000000, 0.000693
1037.000000, 0.000710
1038.000000, 0.000717
1039.000000, 0.000666
1040.000000, 0.000755
1041.000000, 0.000890
1042.000000, 0.000731
1043.000000, 0.000726
1044.000000, 0.000701
1045.000000, 0.000705
1046.000000, 0.000736
1047.000000, 0.000647
1048.000000, 0.000708
1049.000000, 0.000920
1050.000000, 0.000726
1051.000000, 0.000692
1052.000000, 0.000725
1053.000000, 0.000725
1054.000000, 0.000689
1055.000000, 0.000696
1056.000000, 0.000740
1057.000000, 0.000647
1058.000000, 0.000721
1059.000000, 0.000729
1060.000000, 0.000739
1061.000000, 0.000736
1062.000000, 0.000688
1063.000000, 0.000683
1064.000000, 0.000705
1065.000000, 0.000785
1066.000000, 0.000939
1067.000000, 0.000784
1068.000000, 0.000789
1069.000000, 0.000764
1070.000000, 0.000803
1071.000000, 0.000814
1072.000000, 0.000787
1073.000000, 0.000796
1074.000000, 0.000767
1075.000000, 0.000751
1076.000000, 0.000441
1077.000000, 0.000348
1078.000000, 0.000922
1079.000000, 0.000416
1080.000000, 0.000480
1081.000000, 0.000996
1082.000000, 0.000970
1083.000000, 0.000973
1084.000000, 0.000649
1085.000000, 0.000459
1086.000000, 0.000153
1087.000000, 0.000308
1088.000000, 0.000937
1089.000000, 0.006240
1090.000000, 0.019290
1091.000000, 0.095710
1092.000000, 0.257840
1093.000000, 0.479810
1094.000000, 1.569640
1095.000000, 3.058330
1096.000000, 9.017850
1097.000000, 22.833860
1098.000000, 40.977500
1099.000000, 58.539230
1100.000000, 70.204690
1101.000000, 75.356470
