# Wavelength  (nm), Transmission (%)
2600.000000, 66.689690
2599.000000, 66.586891
2598.000000, 66.586205
2597.000000, 66.470840
2596.000000, 66.363594
2595.000000, 66.220734
2594.000000, 66.034004
2593.000000, 66.010010
2592.000000, 65.870293
2591.000000, 65.696045
2590.000000, 65.485695
2589.000000, 65.442184
2588.000000, 65.212814
2587.000000, 65.061066
2586.000000, 64.922592
2585.000000, 64.748360
2584.000000, 64.571014
2583.000000, 64.417068
2582.000000, 64.275444
2581.000000, 64.216385
2580.000000, 64.035812
2579.000000, 63.983070
2578.000000, 63.897198
2577.000000, 63.948811
2576.000000, 63.918865
2575.000000, 63.791771
2574.000000, 63.816113
2573.000000, 63.751572
2572.000000, 63.784737
2571.000000, 63.826225
2570.000000, 63.723351
2569.000000, 63.686298
2568.000000, 63.717304
2567.000000, 63.573635
2566.000000, 63.537209
2565.000000, 63.419785
2564.000000, 63.473213
2563.000000, 63.444424
2562.000000, 63.388382
2561.000000, 63.307720
2560.000000, 63.233109
2559.000000, 63.314880
2558.000000, 63.218815
2557.000000, 63.182587
2556.000000, 63.218498
2555.000000, 63.109112
2554.000000, 63.137543
2553.000000, 63.208305
2552.000000, 63.209450
2551.000000, 63.168507
2550.000000, 63.267864
2549.000000, 63.282715
2548.000000, 63.219406
2547.000000, 63.266785
2546.000000, 63.295280
2545.000000, 63.248062
2544.000000, 63.207741
2543.000000, 63.224159
2542.000000, 63.227749
2541.000000, 63.127815
2540.000000, 63.089500
2539.000000, 63.127945
2538.000000, 62.979584
2537.000000, 62.918369
2536.000000, 62.840187
2535.000000, 62.720402
2534.000000, 62.626560
2533.000000, 62.457920
2532.000000, 62.363689
2531.000000, 62.142849
2530.000000, 61.992149
2529.000000, 61.919273
2528.000000, 61.728458
2527.000000, 61.475174
2526.000000, 61.379509
2525.000000, 61.163826
2524.000000, 60.973454
2523.000000, 60.824169
2522.000000, 60.747814
2521.000000, 60.509224
2520.000000, 60.362804
2519.000000, 60.208000
2518.000000, 60.102825
2517.000000, 59.914875
2516.000000, 59.837257
2515.000000, 59.739555
2514.000000, 59.682911
2513.000000, 59.564106
2512.000000, 59.583061
2511.000000, 59.536999
2510.000000, 59.519184
2509.000000, 59.606625
2508.000000, 59.596931
2507.000000, 59.656357
2506.000000, 59.763699
2505.000000, 59.802628
2504.000000, 59.894882
2503.000000, 60.018723
2502.000000, 60.114227
2501.000000, 60.192066
2500.000000, 60.233242
2499.000000, 60.346592
2498.000000, 60.430847
2497.000000, 60.420441
2496.000000, 60.557037
2495.000000, 60.552807
2494.000000, 60.609947
2493.000000, 60.624748
2492.000000, 60.730827
2491.000000, 60.714275
2490.000000, 60.699890
2489.000000, 60.769741
2488.000000, 60.781281
2487.000000, 60.815704
2486.000000, 60.825752
2485.000000, 60.894459
2484.000000, 60.809010
2483.000000, 60.820377
2482.000000, 60.810394
2481.000000, 60.648304
2480.000000, 60.578773
2479.000000, 60.489609
2478.000000, 60.185211
2477.000000, 60.030216
2476.000000, 59.761536
2475.000000, 59.350239
2474.000000, 58.995163
2473.000000, 58.694237
2472.000000, 58.275311
2471.000000, 57.820129
2470.000000, 57.447479
2469.000000, 57.135941
2468.000000, 56.623470
2467.000000, 56.266159
2466.000000, 55.843960
2465.000000, 55.523724
2464.000000, 55.176002
2463.000000, 55.090363
2462.000000, 54.917145
2461.000000, 54.908310
2460.000000, 55.042522
2459.000000, 55.122112
2458.000000, 55.316765
2457.000000, 55.652225
2456.000000, 56.074482
2455.000000, 56.359146
2454.000000, 56.726402
2453.000000, 57.212006
2452.000000, 57.501717
2451.000000, 57.976215
2450.000000, 58.335884
2449.000000, 58.771877
2448.000000, 59.209476
2447.000000, 59.697266
2446.000000, 60.044922
2445.000000, 60.497620
2444.000000, 60.979591
2443.000000, 61.311497
2442.000000, 61.726433
2441.000000, 62.114269
2440.000000, 62.354027
2439.000000, 62.621773
2438.000000, 62.890224
2437.000000, 63.144417
2436.000000, 63.290714
2435.000000, 63.459103
2434.000000, 63.608696
2433.000000, 63.704891
2432.000000, 63.846493
2431.000000, 63.930672
2430.000000, 63.995003
2429.000000, 64.070686
2428.000000, 64.183144
2427.000000, 64.115387
2426.000000, 64.156746
2425.000000, 64.209351
2424.000000, 64.198898
2423.000000, 64.217941
2422.000000, 64.231422
2421.000000, 64.176529
2420.000000, 64.087273
2419.000000, 64.105637
2418.000000, 64.052155
2417.000000, 63.985806
2416.000000, 63.936443
2415.000000, 63.790424
2414.000000, 63.700249
2413.000000, 63.560646
2412.000000, 63.526142
2411.000000, 63.307835
2410.000000, 63.136219
2409.000000, 63.077728
2408.000000, 62.793533
2407.000000, 62.666546
2406.000000, 62.560154
2405.000000, 62.313263
2404.000000, 62.246693
2403.000000, 62.235321
2402.000000, 62.157661
2401.000000, 62.152588
2400.000000, 62.196033
2399.000000, 62.205170
2398.000000, 62.308769
2397.000000, 62.463070
2396.000000, 62.524544
2395.000000, 62.594456
2394.000000, 62.759769
2393.000000, 62.758995
2392.000000, 62.855553
2391.000000, 63.029053
2390.000000, 63.044167
2389.000000, 63.146107
2388.000000, 63.199623
2387.000000, 63.208111
2386.000000, 63.464642
2385.000000, 63.588428
2384.000000, 63.539642
2383.000000, 63.712864
2382.000000, 63.838428
2381.000000, 63.781803
2380.000000, 63.831680
2379.000000, 63.919617
2378.000000, 63.997395
2377.000000, 63.923866
2376.000000, 63.910210
2375.000000, 63.882401
2374.000000, 63.925941
2373.000000, 63.917046
2372.000000, 63.844608
2371.000000, 63.781643
2370.000000, 63.863991
2369.000000, 63.844345
2368.000000, 63.797535
2367.000000, 63.731056
2366.000000, 63.870941
2365.000000, 63.749825
2364.000000, 63.929729
2363.000000, 63.819736
2362.000000, 63.945412
2361.000000, 63.992775
2360.000000, 64.046303
2359.000000, 64.188286
2358.000000, 64.175919
2357.000000, 64.191841
2356.000000, 64.266151
2355.000000, 64.154968
2354.000000, 64.121147
2353.000000, 64.216888
2352.000000, 64.177063
2351.000000, 64.210312
2350.000000, 64.063309
2349.000000, 64.141594
2348.000000, 64.134384
2347.000000, 64.168304
2346.000000, 64.269081
2345.000000, 64.231613
2344.000000, 64.399117
2343.000000, 64.356682
2342.000000, 64.421242
2341.000000, 64.483490
2340.000000, 64.439018
2339.000000, 64.354767
2338.000000, 64.275185
2337.000000, 64.214928
2336.000000, 64.121117
2335.000000, 64.031425
2334.000000, 63.890503
2333.000000, 63.736938
2332.000000, 63.442890
2331.000000, 63.328487
2330.000000, 63.151455
2329.000000, 62.910175
2328.000000, 62.672276
2327.000000, 62.377430
2326.000000, 62.222134
2325.000000, 61.947708
2324.000000, 61.593311
2323.000000, 61.240761
2322.000000, 60.973888
2321.000000, 60.475342
2320.000000, 60.119648
2319.000000, 59.821518
2318.000000, 59.355713
2317.000000, 59.146015
2316.000000, 58.972382
2315.000000, 58.785938
2314.000000, 58.849220
2313.000000, 58.837158
2312.000000, 58.960091
2311.000000, 59.148659
2310.000000, 59.296505
2309.000000, 59.417904
2308.000000, 59.572483
2307.000000, 59.708614
2306.000000, 59.911167
2305.000000, 59.894127
2304.000000, 60.087448
2303.000000, 60.190117
2302.000000, 60.264431
2301.000000, 60.358368
2300.000000, 60.458286
2299.000000, 60.665417
2298.000000, 60.880356
2297.000000, 61.005688
2296.000000, 61.143349
2295.000000, 61.353569
2294.000000, 61.559170
2293.000000, 61.763977
2292.000000, 61.957886
2291.000000, 62.143230
2290.000000, 62.342499
2289.000000, 62.563412
2288.000000, 62.738575
2287.000000, 62.899887
2286.000000, 63.169052
2285.000000, 63.380867
2284.000000, 63.498199
2283.000000, 63.689594
2282.000000, 63.921177
2281.000000, 63.980190
2280.000000, 64.234940
2279.000000, 64.315536
2278.000000, 64.343422
2277.000000, 64.486481
2276.000000, 64.584427
2275.000000, 64.702385
2274.000000, 64.893173
2273.000000, 65.083351
2272.000000, 65.426758
2271.000000, 65.799744
2270.000000, 66.127640
2269.000000, 66.606483
2268.000000, 67.023605
2267.000000, 67.639282
2266.000000, 68.057915
2265.000000, 68.503967
2264.000000, 69.054451
2263.000000, 69.625587
2262.000000, 70.004044
2261.000000, 70.421051
2260.000000, 70.983299
2259.000000, 71.292999
2258.000000, 71.813843
2257.000000, 72.196030
2256.000000, 72.614876
2255.000000, 73.003044
2254.000000, 73.362793
2253.000000, 73.750542
2252.000000, 74.069817
2251.000000, 74.346390
2250.000000, 74.807854
2249.000000, 75.023575
2248.000000, 75.297539
2247.000000, 75.515106
2246.000000, 75.761856
2245.000000, 75.974068
2244.000000, 76.163605
2243.000000, 76.320877
2242.000000, 76.365593
2241.000000, 76.567802
2240.000000, 76.588730
2239.000000, 76.917877
2238.000000, 76.866219
2237.000000, 76.964714
2236.000000, 76.919151
2235.000000, 76.982460
2234.000000, 77.072617
2233.000000, 77.062798
2232.000000, 77.169052
2231.000000, 77.330757
2230.000000, 77.364723
2229.000000, 77.508270
2228.000000, 77.587715
2227.000000, 77.605293
2226.000000, 77.742317
2225.000000, 77.857636
2224.000000, 77.966675
2223.000000, 77.962624
2222.000000, 77.970299
2221.000000, 78.100281
2220.000000, 77.985611
2219.000000, 77.957085
2218.000000, 78.046463
2217.000000, 77.957565
2216.000000, 77.927116
2215.000000, 77.863968
2214.000000, 77.787750
2213.000000, 77.774284
2212.000000, 77.759949
2211.000000, 77.662743
2210.000000, 77.636848
2209.000000, 77.595345
2208.000000, 77.706291
2207.000000, 77.620850
2206.000000, 77.705559
2205.000000, 77.715660
2204.000000, 77.789207
2203.000000, 77.899902
2202.000000, 77.949745
2201.000000, 78.073456
2200.000000, 78.163681
2199.000000, 78.033791
2198.000000, 78.177231
2197.000000, 78.276573
2196.000000, 78.249428
2195.000000, 78.185570
2194.000000, 78.212990
2193.000000, 78.152130
2192.000000, 78.112923
2191.000000, 78.194916
2190.000000, 78.211365
2189.000000, 78.179520
2188.000000, 78.198746
2187.000000, 78.316444
2186.000000, 78.413795
2185.000000, 78.525284
2184.000000, 78.492065
2183.000000, 78.642563
2182.000000, 78.822639
2181.000000, 78.741997
2180.000000, 78.821724
2179.000000, 78.851547
2178.000000, 78.895096
2177.000000, 78.841301
2176.000000, 78.715683
2175.000000, 78.558968
2174.000000, 78.456757
2173.000000, 78.230698
2172.000000, 77.878365
2171.000000, 77.593193
2170.000000, 77.254623
2169.000000, 76.913689
2168.000000, 76.435791
2167.000000, 76.152840
2166.000000, 75.685036
2165.000000, 75.387901
2164.000000, 75.322128
2163.000000, 75.220703
2162.000000, 75.270027
2161.000000, 75.371048
2160.000000, 75.572739
2159.000000, 75.745392
2158.000000, 76.058426
2157.000000, 76.431068
2156.000000, 76.751556
2155.000000, 77.124573
2154.000000, 77.369644
2153.000000, 77.619270
2152.000000, 77.913177
2151.000000, 77.932465
2150.000000, 78.048935
2149.000000, 78.140358
2148.000000, 78.185356
2147.000000, 78.108940
2146.000000, 78.119064
2145.000000, 77.922569
2144.000000, 77.780060
2143.000000, 77.553467
2142.000000, 77.438858
2141.000000, 77.178589
2140.000000, 77.029533
2139.000000, 76.882782
2138.000000, 76.700478
2137.000000, 76.621330
2136.000000, 76.657234
2135.000000, 76.771667
2134.000000, 76.896156
2133.000000, 77.040733
2132.000000, 77.318504
2131.000000, 77.605492
2130.000000, 77.835251
2129.000000, 78.164070
2128.000000, 78.488342
2127.000000, 78.652420
2126.000000, 78.860588
2125.000000, 78.925056
2124.000000, 79.032745
2123.000000, 79.119850
2122.000000, 79.379288
2121.000000, 79.267967
2120.000000, 79.288582
2119.000000, 79.385384
2118.000000, 79.541901
2117.000000, 79.489273
2116.000000, 79.588783
2115.000000, 79.617020
2114.000000, 79.706551
2113.000000, 79.637436
2112.000000, 79.743607
2111.000000, 79.684448
2110.000000, 79.802635
2109.000000, 79.842834
2108.000000, 79.793068
2107.000000, 79.906937
2106.000000, 79.878670
2105.000000, 79.932770
2104.000000, 79.985069
2103.000000, 80.022842
2102.000000, 79.971649
2101.000000, 79.964752
2100.000000, 79.988754
2099.000000, 79.961456
2098.000000, 79.999741
2097.000000, 79.968742
2096.000000, 80.063110
2095.000000, 80.203430
2094.000000, 79.995758
2093.000000, 80.046532
2092.000000, 80.103836
2091.000000, 80.184021
2090.000000, 80.275444
2089.000000, 80.213257
2088.000000, 80.303627
2087.000000, 80.318794
2086.000000, 80.372459
2085.000000, 80.389854
2084.000000, 80.424843
2083.000000, 80.536064
2082.000000, 80.604393
2081.000000, 80.716682
2080.000000, 80.745140
2079.000000, 80.742599
2078.000000, 80.904877
2077.000000, 80.890480
2076.000000, 80.986710
2075.000000, 81.086006
2074.000000, 81.161736
2073.000000, 81.224945
2072.000000, 81.330025
2071.000000, 81.499359
2070.000000, 81.508049
2069.000000, 81.517212
2068.000000, 81.640289
2067.000000, 81.637787
2066.000000, 81.909821
2065.000000, 81.866699
2064.000000, 81.940056
2063.000000, 82.066177
2062.000000, 82.169456
2061.000000, 82.230461
2060.000000, 82.322533
2059.000000, 82.334633
2058.000000, 82.438965
2057.000000, 82.585182
2056.000000, 82.575043
2055.000000, 82.742081
2054.000000, 82.742271
2053.000000, 82.655273
2052.000000, 82.869270
2051.000000, 83.002113
2050.000000, 82.987152
2049.000000, 83.039894
2048.000000, 83.128708
2047.000000, 83.253189
2046.000000, 83.204491
2045.000000, 83.330406
2044.000000, 83.441917
2043.000000, 83.425064
2042.000000, 83.574921
2041.000000, 83.486427
2040.000000, 83.670761
2039.000000, 83.740425
2038.000000, 83.737389
2037.000000, 83.865967
2036.000000, 83.960876
2035.000000, 84.010056
2034.000000, 84.170906
2033.000000, 84.285187
2032.000000, 84.290581
2031.000000, 84.445297
2030.000000, 84.391304
2029.000000, 84.500603
2028.000000, 84.498146
2027.000000, 84.628769
2026.000000, 84.643829
2025.000000, 84.680122
2024.000000, 84.750191
2023.000000, 84.774193
2022.000000, 84.921898
2021.000000, 84.936348
2020.000000, 84.953171
2019.000000, 84.995064
2018.000000, 85.018242
2017.000000, 85.058685
2016.000000, 85.086159
2015.000000, 85.257645
2014.000000, 85.151901
2013.000000, 85.294655
2012.000000, 85.357803
2011.000000, 85.430573
2010.000000, 85.357521
2009.000000, 85.491081
2008.000000, 85.601433
2007.000000, 85.563248
2006.000000, 85.651382
2005.000000, 85.680870
2004.000000, 85.746170
2003.000000, 85.753807
2002.000000, 85.783401
2001.000000, 85.872223
2000.000000, 85.897339
1999.000000, 85.941086
1998.000000, 86.011932
1997.000000, 86.049339
1996.000000, 86.228386
1995.000000, 86.085052
1994.000000, 86.195107
1993.000000, 86.279121
1992.000000, 86.223724
1991.000000, 86.236961
1990.000000, 86.033043
1989.000000, 86.264107
1988.000000, 86.166450
1987.000000, 86.277786
1986.000000, 86.277107
1985.000000, 86.238396
1984.000000, 86.315186
1983.000000, 86.380264
1982.000000, 86.317619
1981.000000, 86.322510
1980.000000, 86.403725
1979.000000, 86.339394
1978.000000, 86.407997
1977.000000, 86.299934
1976.000000, 86.430183
1975.000000, 86.265236
1974.000000, 86.314789
1973.000000, 86.367554
1972.000000, 86.488396
1971.000000, 86.350304
1970.000000, 86.385422
1969.000000, 86.330620
1968.000000, 86.380386
1967.000000, 86.475601
1966.000000, 86.408844
1965.000000, 86.454407
1964.000000, 86.538162
1963.000000, 86.379517
1962.000000, 86.467148
1961.000000, 86.442795
1960.000000, 86.456268
1959.000000, 86.406555
1958.000000, 86.435684
1957.000000, 86.550674
1956.000000, 86.456848
1955.000000, 86.502342
1954.000000, 86.514206
1953.000000, 86.521530
1952.000000, 86.552338
1951.000000, 86.514656
1950.000000, 86.464401
1949.000000, 86.564728
1948.000000, 86.494423
1947.000000, 86.597786
1946.000000, 86.418114
1945.000000, 86.480232
1944.000000, 86.448357
1943.000000, 86.558601
1942.000000, 86.595047
1941.000000, 86.550209
1940.000000, 86.514763
1939.000000, 86.458153
1938.000000, 86.448494
1937.000000, 86.491676
1936.000000, 86.535591
1935.000000, 86.587646
1934.000000, 86.572227
1933.000000, 86.476578
1932.000000, 86.533707
1931.000000, 86.580940
1930.000000, 86.538223
1929.000000, 86.597298
1928.000000, 86.575645
1927.000000, 86.526978
1926.000000, 86.605919
1925.000000, 86.596634
1924.000000, 86.515793
1923.000000, 86.654060
1922.000000, 86.744781
1921.000000, 86.813942
1920.000000, 86.703049
1919.000000, 86.686790
1918.000000, 86.745132
1917.000000, 86.619476
1916.000000, 86.652740
1915.000000, 86.766670
1914.000000, 86.795601
1913.000000, 86.745087
1912.000000, 86.713478
1911.000000, 86.753807
1910.000000, 86.736481
1909.000000, 86.757645
1908.000000, 86.759338
1907.000000, 86.963669
1906.000000, 86.924690
1905.000000, 86.938240
1904.000000, 86.891113
1903.000000, 86.836975
1902.000000, 86.990646
1901.000000, 86.998825
1900.000000, 86.979134
1899.000000, 87.023613
1898.000000, 86.985184
1897.000000, 87.108932
1896.000000, 87.036606
1895.000000, 87.151169
1894.000000, 87.137566
1893.000000, 87.121872
1892.000000, 87.238358
1891.000000, 87.159012
1890.000000, 87.202499
1889.000000, 87.302498
1888.000000, 87.256386
1887.000000, 87.302711
1886.000000, 87.350456
1885.000000, 87.202927
1884.000000, 87.281639
1883.000000, 87.242538
1882.000000, 87.289345
1881.000000, 87.258507
1880.000000, 87.342949
1879.000000, 87.332092
1878.000000, 87.297943
1877.000000, 87.418198
1876.000000, 87.356667
1875.000000, 87.262924
1874.000000, 87.327171
1873.000000, 87.374603
1872.000000, 87.269196
1871.000000, 87.338982
1870.000000, 87.317871
1869.000000, 87.402435
1868.000000, 87.250694
1867.000000, 87.325844
1866.000000, 87.298134
1865.000000, 87.344170
1864.000000, 87.332542
1863.000000, 87.396202
1862.000000, 87.401497
1861.000000, 87.365791
1860.000000, 87.400673
1859.000000, 87.337143
1858.000000, 87.287529
1857.000000, 87.333649
1856.000000, 87.280266
1855.000000, 87.235611
1854.000000, 87.246155
1853.000000, 87.194664
1852.000000, 87.281181
1851.000000, 87.214783
1850.000000, 87.206688
1849.000000, 87.274796
1848.000000, 87.167694
1847.000000, 87.127213
1846.000000, 87.111633
1845.000000, 87.073654
1844.000000, 87.009186
1843.000000, 87.131279
1842.000000, 87.070969
1841.000000, 86.994232
1840.000000, 86.994705
1839.000000, 86.938820
1838.000000, 87.001007
1837.000000, 86.948868
1836.000000, 86.933357
1835.000000, 86.886070
1834.000000, 86.790314
1833.000000, 86.848816
1832.000000, 86.848045
1831.000000, 86.761108
1830.000000, 86.770210
1829.000000, 86.673370
1828.000000, 86.736748
1827.000000, 86.719589
1826.000000, 86.645660
1825.000000, 86.592392
1824.000000, 86.599144
1823.000000, 86.594116
1822.000000, 86.588158
1821.000000, 86.602341
1820.000000, 86.652626
1819.000000, 86.582687
1818.000000, 86.532692
1817.000000, 86.448624
1816.000000, 86.476151
1815.000000, 86.405365
1814.000000, 86.409081
1813.000000, 86.450600
1812.000000, 86.406799
1811.000000, 86.437866
1810.000000, 86.320534
1809.000000, 86.363808
1808.000000, 86.224434
1807.000000, 86.308189
1806.000000, 86.387650
1805.000000, 86.174973
1804.000000, 86.271759
1803.000000, 86.223778
1802.000000, 86.186104
1801.000000, 86.226074
1800.000000, 86.189957
1799.000000, 86.150948
1798.000000, 86.197128
1797.000000, 86.118774
1796.000000, 86.090385
1795.000000, 86.054024
1794.000000, 86.100655
1793.000000, 86.020020
1792.000000, 86.057648
1791.000000, 85.960411
1790.000000, 85.934464
1789.000000, 85.939491
1788.000000, 85.940849
1787.000000, 85.849808
1786.000000, 85.865990
1785.000000, 85.859749
1784.000000, 85.812729
1783.000000, 85.687210
1782.000000, 85.746971
1781.000000, 85.643913
1780.000000, 85.563087
1779.000000, 85.607155
1778.000000, 85.578087
1777.000000, 85.692551
1776.000000, 85.545876
1775.000000, 85.443214
1774.000000, 85.292549
1773.000000, 85.271156
1772.000000, 85.277344
1771.000000, 85.287582
1770.000000, 85.229927
