# Wavelength  (nm), Transmission (%)
250.000000, 1.447846
251.000000, 1.148685
252.000000, 0.948101
253.000000, 1.642062
254.000000, 0.242698
255.000000, 0.804432
256.000000, 1.027570
257.000000, 1.018645
258.000000, 0.705947
259.000000, 0.603515
260.000000, 1.005150
261.000000, 0.763260
262.000000, 0.373295
263.000000, 0.670832
264.000000, 1.053189
265.000000, 1.569098
266.000000, 1.273070
267.000000, 0.824447
268.000000, 0.388348
269.000000, 1.099937
270.000000, 0.493140
271.000000, 1.141587
272.000000, 0.367100
273.000000, 0.813632
274.000000, 0.566569
275.000000, 0.570080
276.000000, 2.419383
277.000000, 0.828071
278.000000, 2.069012
279.000000, 0.649605
280.000000, 0.882081
281.000000, 0.973002
282.000000, 2.964913
283.000000, 0.768065
284.000000, 1.849015
285.000000, 1.252062
286.000000, 1.422798
287.000000, 1.682144
288.000000, 1.479859
289.000000, 0.802394
290.000000, 2.242414
291.000000, 0.505607
292.000000, 0.526824
293.000000, 1.257962
294.000000, 0.986523
295.000000, 0.233321
296.000000, 1.849453
297.000000, 0.394079
298.000000, 0.749088
299.000000, 1.045857
300.000000, 0.627618
301.000000, 1.631145
302.000000, 1.659588
303.000000, 0.553026
304.000000, 0.772794
305.000000, 1.196305
306.000000, 0.515264
307.000000, 1.308746
308.000000, 1.040581
309.000000, 1.472980
310.000000, 1.549045
311.000000, 0.699751
312.000000, 0.999179
313.000000, 1.538487
314.000000, 3.136765
315.000000, 3.192524
316.000000, 3.411973
317.000000, 5.684364
318.000000, 6.124892
319.000000, 9.323166
320.000000, 10.270404
321.000000, 13.805340
322.000000, 16.443712
323.000000, 21.315625
324.000000, 24.706765
325.000000, 27.708871
326.000000, 27.713929
327.000000, 25.948537
328.000000, 20.253074
329.000000, 14.887119
330.000000, 9.723894
331.000000, 5.279347
332.000000, 3.664064
333.000000, 1.528081
334.000000, 1.006889
335.000000, 0.400806
336.000000, 0.601123
337.000000, 0.690997
338.000000, 0.517018
339.000000, 0.487965
340.000000, 0.615522
341.000000, 0.078180
342.000000, 2.274214
343.000000, 0.186629
344.000000, 0.834951
345.000000, 0.709049
346.000000, 1.097145
347.000000, 0.632964
348.000000, 0.782978
349.000000, 0.893519
350.000000, 2.074764
351.000000, 3.413532
352.000000, 5.109074
353.000000, 6.745850
354.000000, 7.420782
355.000000, 7.391375
356.000000, 7.641998
357.000000, 8.942034
358.000000, 10.239844
359.000000, 12.350214
360.000000, 13.206889
361.000000, 14.474097
362.000000, 14.749986
363.000000, 15.726155
364.000000, 16.307630
365.000000, 16.601156
366.000000, 16.916172
367.000000, 16.846237
368.000000, 15.589606
369.000000, 14.625741
370.000000, 13.142288
371.000000, 11.904104
372.000000, 10.868231
373.000000, 9.710817
374.000000, 9.114959
375.000000, 8.389603
376.000000, 7.915580
377.000000, 7.230214
378.000000, 6.676778
379.000000, 5.822918
380.000000, 5.063404
381.000000, 4.284008
382.000000, 3.420359
383.000000, 2.768982
384.000000, 2.186180
385.000000, 1.620064
386.000000, 1.381546
387.000000, 1.108672
388.000000, 1.034095
389.000000, 0.721384
390.000000, 0.725105
391.000000, 0.811545
392.000000, 0.619742
393.000000, 0.574413
394.000000, 0.675308
395.000000, 0.499334
396.000000, 0.504241
397.000000, 0.510150
398.000000, 0.652512
399.000000, 0.573774
400.000000, 0.668842
401.000000, 0.614434
402.000000, 0.586191
403.000000, 0.578629
404.000000, 0.550028
405.000000, 0.491608
406.000000, 0.405528
407.000000, 0.490909
408.000000, 0.320066
409.000000, 0.329856
410.000000, 0.315952
411.000000, 0.244254
412.000000, 0.246663
413.000000, 0.236989
414.000000, 0.256798
415.000000, 0.271229
416.000000, 0.236705
417.000000, 0.318237
418.000000, 0.301351
419.000000, 0.296478
420.000000, 0.263900
421.000000, 0.292643
422.000000, 0.206451
423.000000, 0.149930
424.000000, 0.197328
425.000000, 0.130486
426.000000, 0.150578
427.000000, 0.106069
428.000000, 0.180234
429.000000, 0.193939
430.000000, 0.175846
431.000000, 0.173374
432.000000, 0.209865
433.000000, 0.206396
434.000000, 0.261079
435.000000, 0.278004
436.000000, 0.301087
437.000000, 0.272595
438.000000, 0.241301
439.000000, 0.147531
440.000000, 0.105541
441.000000, 0.109885
442.000000, 0.046162
443.000000, 0.032795
444.000000, 0.008557
445.000000, 0.076811
446.000000, 0.018686
447.000000, 0.070837
448.000000, 0.022609
449.000000, 0.024229
450.000000, 0.049017
451.000000, 0.029770
452.000000, 0.082018
453.000000, 0.052352
454.000000, 0.089320
455.000000, 0.062740
456.000000, 0.051955
457.000000, 0.032464
458.000000, 0.004957
459.000000, 0.042854
460.000000, 0.092446
461.000000, 0.018031
462.000000, 0.045590
463.000000, 0.048138
464.000000, 0.128402
465.000000, 0.129848
466.000000, 0.141147
467.000000, 0.149149
468.000000, 0.146250
469.000000, 0.109769
470.000000, 0.075222
471.000000, 0.049825
472.000000, 0.059840
473.000000, 0.030227
474.000000, 0.031256
475.000000, 0.016701
476.000000, 0.032839
477.000000, 0.047314
478.000000, 0.013316
479.000000, 0.046767
480.000000, 0.023025
481.000000, 0.047826
482.000000, 0.012581
483.000000, 0.022852
484.000000, 0.007811
485.000000, 0.061216
486.000000, 0.010030
487.000000, 0.045849
488.000000, 0.022231
489.000000, 0.042993
490.000000, 0.031280
491.000000, 0.024498
492.000000, 0.039085
493.000000, 0.048111
494.000000, 0.054816
495.000000, 0.073692
496.000000, 0.082664
497.000000, 0.121518
498.000000, 0.177558
499.000000, 0.156767
500.000000, 0.155079
501.000000, 0.117329
502.000000, 0.093305
503.000000, 0.097859
504.000000, 0.052739
505.000000, 0.044278
506.000000, 0.028580
507.000000, 0.034565
508.000000, 0.038989
509.000000, 0.076871
510.000000, 0.052659
511.000000, 0.045937
512.000000, 0.066187
513.000000, 0.070409
514.000000, 0.061667
515.000000, 0.077913
516.000000, 0.073429
517.000000, 0.079763
518.000000, 0.065970
519.000000, 0.050623
520.000000, 0.045314
521.000000, 0.036082
522.000000, 0.046846
523.000000, 0.032030
524.000000, 0.037015
525.000000, 0.022547
526.000000, 0.033231
527.000000, 0.002992
528.000000, 0.018888
529.000000, 0.010737
530.000000, 0.029561
531.000000, 0.048774
532.000000, 0.055227
533.000000, 0.098450
534.000000, 0.105572
535.000000, 0.112973
536.000000, 0.120967
537.000000, 0.104900
538.000000, 0.073583
539.000000, 0.081776
540.000000, 0.057326
541.000000, 0.052360
542.000000, 0.052699
543.000000, 0.044870
544.000000, 0.070227
545.000000, 0.097087
546.000000, 0.124940
547.000000, 0.174383
548.000000, 0.214987
549.000000, 0.277439
550.000000, 0.286649
551.000000, 0.276290
552.000000, 0.238431
553.000000, 0.191132
554.000000, 0.134731
555.000000, 0.076781
556.000000, 0.043863
557.000000, 0.037344
558.000000, 0.037931
559.000000, 0.021935
560.000000, 0.030018
561.000000, 0.028954
562.000000, 0.036795
563.000000, 0.029464
564.000000, 0.042000
565.000000, 0.035691
566.000000, 0.047539
567.000000, 0.040142
568.000000, 0.029696
569.000000, 0.045702
570.000000, 0.065891
571.000000, 0.098222
572.000000, 0.137541
573.000000, 0.176660
574.000000, 0.224542
575.000000, 0.256926
576.000000, 0.275164
577.000000, 0.272217
578.000000, 0.236486
579.000000, 0.158301
580.000000, 0.111349
581.000000, 0.067823
582.000000, 0.045040
583.000000, 0.021851
584.000000, 0.013702
585.000000, 0.006689
586.000000, 0.033632
587.000000, 0.048912
588.000000, 0.068546
589.000000, 0.079471
590.000000, 0.117541
591.000000, 0.095765
592.000000, 0.079285
593.000000, 0.065972
594.000000, 0.051696
595.000000, 0.049211
596.000000, 0.028839
597.000000, 0.019543
598.000000, 0.013027
599.000000, 0.026095
600.000000, 0.020358
601.000000, 0.025354
602.000000, 0.025558
603.000000, 0.020170
604.000000, 0.027361
605.000000, 0.018273
606.000000, 0.027040
607.000000, 0.014153
608.000000, 0.002637
609.000000, 0.027622
610.000000, 0.020155
611.000000, 0.010902
612.000000, 0.038954
613.000000, 0.008721
614.000000, 0.031940
615.000000, 0.011492
616.000000, 0.040724
617.000000, 0.032511
618.000000, 0.017715
619.000000, 0.010857
620.000000, 0.017018
621.000000, 0.022138
622.000000, 0.046563
623.000000, 0.011989
624.000000, 0.018337
625.000000, 0.032127
626.000000, 0.014873
627.000000, 0.034492
628.000000, 0.056987
629.000000, 0.030339
630.000000, 0.055851
631.000000, 0.076292
632.000000, 0.228855
633.000000, 0.563407
634.000000, 1.169246
635.000000, 2.035324
636.000000, 3.123840
637.000000, 4.251842
638.000000, 5.435528
639.000000, 6.682342
640.000000, 8.102345
641.000000, 9.814981
642.000000, 11.818481
643.000000, 13.918994
644.000000, 16.004695
645.000000, 17.950773
646.000000, 19.840171
647.000000, 21.936804
648.000000, 24.269967
649.000000, 26.844290
650.000000, 29.522903
651.000000, 32.040681
652.000000, 34.293430
653.000000, 36.220051
654.000000, 37.924814
655.000000, 39.486764
656.000000, 40.938591
657.000000, 42.403292
658.000000, 43.934910
659.000000, 45.552642
660.000000, 47.315093
661.000000, 49.245581
662.000000, 51.525817
663.000000, 54.250370
664.000000, 57.405282
665.000000, 61.043242
666.000000, 65.129693
667.000000, 69.524670
668.000000, 73.889207
669.000000, 78.079943
670.000000, 81.835045
671.000000, 85.034563
672.000000, 87.559081
673.000000, 89.536074
674.000000, 91.095900
675.000000, 92.349394
676.000000, 93.327850
677.000000, 94.203723
678.000000, 94.961349
679.000000, 95.648237
680.000000, 96.104747
681.000000, 96.400610
682.000000, 96.661280
683.000000, 96.881110
684.000000, 97.046511
685.000000, 97.261221
686.000000, 97.444242
687.000000, 97.638238
688.000000, 97.787430
689.000000, 97.861682
690.000000, 97.902947
691.000000, 97.906010
692.000000, 97.965708
693.000000, 97.994933
694.000000, 98.042657
695.000000, 98.057046
696.000000, 98.016063
697.000000, 97.994831
698.000000, 97.904886
699.000000, 97.782282
700.000000, 97.725848
701.000000, 97.607614
702.000000, 97.518562
703.000000, 97.429332
704.000000, 97.367828
705.000000, 97.289929
706.000000, 97.217352
707.000000, 97.123380
708.000000, 97.081368
709.000000, 97.013551
710.000000, 97.023541
711.000000, 97.067820
712.000000, 97.111410
713.000000, 97.179935
714.000000, 97.208578
715.000000, 97.238882
716.000000, 97.280020
717.000000, 97.285314
718.000000, 97.237714
719.000000, 97.194958
720.000000, 97.063449
721.000000, 97.025513
722.000000, 97.052404
723.000000, 97.056786
724.000000, 97.145073
725.000000, 97.188028
726.000000, 97.241150
727.000000, 97.307233
728.000000, 97.350692
729.000000, 97.391062
730.000000, 97.447934
731.000000, 97.441915
732.000000, 97.493794
733.000000, 97.519384
734.000000, 97.541293
735.000000, 97.542137
736.000000, 97.607275
737.000000, 97.589615
738.000000, 97.593563
739.000000, 97.563023
740.000000, 97.532107
741.000000, 97.526065
742.000000, 97.462033
743.000000, 97.392833
744.000000, 97.376609
745.000000, 97.318578
746.000000, 97.293537
747.000000, 97.245843
748.000000, 97.263943
749.000000, 97.253086
750.000000, 97.228459
751.000000, 97.186835
752.000000, 97.211570
753.000000, 97.202520
754.000000, 97.219973
755.000000, 97.285263
756.000000, 97.354488
757.000000, 97.454647
758.000000, 97.576621
759.000000, 97.672430
760.000000, 97.795452
761.000000, 97.902113
762.000000, 97.926568
763.000000, 97.981134
764.000000, 97.995473
765.000000, 97.933205
766.000000, 97.874520
767.000000, 97.771908
768.000000, 97.677505
769.000000, 97.641439
770.000000, 97.551375
771.000000, 97.498583
772.000000, 97.485311
773.000000, 97.499745
774.000000, 97.531111
775.000000, 97.517470
776.000000, 97.532131
777.000000, 97.534022
778.000000, 97.511571
779.000000, 97.511849
780.000000, 97.441255
781.000000, 97.398125
782.000000, 97.398937
783.000000, 97.361743
784.000000, 97.362345
785.000000, 97.385930
786.000000, 97.429270
787.000000, 97.476827
788.000000, 97.528528
789.000000, 97.619197
790.000000, 97.641107
791.000000, 97.696962
792.000000, 97.731086
793.000000, 97.722079
794.000000, 97.729592
795.000000, 97.697438
796.000000, 97.649563
797.000000, 97.564084
798.000000, 97.536496
799.000000, 97.496665
800.000000, 97.432216
801.000000, 97.428644
802.000000, 97.413645
803.000000, 97.436624
804.000000, 97.456767
805.000000, 97.460933
806.000000, 97.481861
807.000000, 97.484274
808.000000, 97.482394
809.000000, 97.436154
810.000000, 97.405000
811.000000, 97.380465
812.000000, 97.391923
813.000000, 97.362794
814.000000, 97.353685
815.000000, 97.408054
816.000000, 97.438888
817.000000, 97.486431
818.000000, 97.532948
819.000000, 97.609851
820.000000, 97.643616
821.000000, 97.738816
822.000000, 97.748581
823.000000, 97.761401
824.000000, 97.751917
825.000000, 97.776361
826.000000, 97.693310
827.000000, 97.680845
828.000000, 97.614345
829.000000, 97.561675
830.000000, 97.527122
831.000000, 97.497023
832.000000, 97.463032
833.000000, 97.451736
834.000000, 97.467068
835.000000, 97.507904
836.000000, 97.594390
837.000000, 97.630234
838.000000, 97.670111
839.000000, 97.741693
840.000000, 97.763748
841.000000, 97.779537
842.000000, 97.822564
843.000000, 97.824255
844.000000, 97.832515
845.000000, 97.809501
846.000000, 97.816450
847.000000, 97.815866
848.000000, 97.807503
849.000000, 97.812767
850.000000, 97.836946
851.000000, 97.842443
852.000000, 97.884129
853.000000, 97.911344
854.000000, 97.953520
855.000000, 97.982011
856.000000, 98.008913
857.000000, 98.006738
858.000000, 98.024364
859.000000, 98.036053
860.000000, 98.026740
861.000000, 98.021003
862.000000, 98.016584
863.000000, 98.019634
864.000000, 98.006241
865.000000, 98.005423
866.000000, 98.004205
867.000000, 98.028661
868.000000, 98.053328
869.000000, 98.078045
870.000000, 98.092603
871.000000, 98.090455
872.000000, 98.097870
873.000000, 98.096092
874.000000, 98.082803
875.000000, 98.048237
876.000000, 98.015004
877.000000, 97.990426
878.000000, 97.918176
879.000000, 97.854717
880.000000, 97.794828
881.000000, 97.767970
882.000000, 97.716253
883.000000, 97.672471
884.000000, 97.678148
885.000000, 97.698493
886.000000, 97.699405
887.000000, 97.736722
888.000000, 97.775002
889.000000, 97.830021
890.000000, 97.884183
891.000000, 97.948097
892.000000, 97.973005
893.000000, 98.003152
894.000000, 98.032062
895.000000, 98.040085
896.000000, 98.010235
897.000000, 97.999161
898.000000, 97.980056
899.000000, 97.924146
900.000000, 97.888702
901.000000, 97.824629
902.000000, 97.791785
903.000000, 97.750774
904.000000, 97.749655
905.000000, 97.729076
906.000000, 97.724299
907.000000, 97.741734
908.000000, 97.770648
909.000000, 97.805398
910.000000, 97.822047
911.000000, 97.854317
912.000000, 97.880095
913.000000, 97.890005
914.000000, 97.899613
915.000000, 97.881457
916.000000, 97.865516
917.000000, 97.816201
918.000000, 97.781060
919.000000, 97.719498
920.000000, 97.642745
921.000000, 97.583519
922.000000, 97.520206
923.000000, 97.472320
924.000000, 97.421549
925.000000, 97.397693
926.000000, 97.398678
927.000000, 97.392690
928.000000, 97.424447
929.000000, 97.462238
930.000000, 97.497217
931.000000, 97.534006
932.000000, 97.586589
933.000000, 97.643618
934.000000, 97.678427
935.000000, 97.719410
936.000000, 97.715382
937.000000, 97.725918
938.000000, 97.715761
939.000000, 97.689499
940.000000, 97.643326
941.000000, 97.604861
942.000000, 97.529835
943.000000, 97.476698
944.000000, 97.413949
945.000000, 97.363944
946.000000, 97.312214
947.000000, 97.284756
948.000000, 97.266990
949.000000, 97.265527
950.000000, 97.281165
951.000000, 97.316511
952.000000, 97.352867
953.000000, 97.406580
954.000000, 97.461298
955.000000, 97.533153
956.000000, 97.601852
957.000000, 97.680349
958.000000, 97.714192
959.000000, 97.779434
960.000000, 97.824440
961.000000, 97.853461
962.000000, 97.867311
963.000000, 97.886125
964.000000, 97.867143
965.000000, 97.881188
966.000000, 97.857588
967.000000, 97.837640
968.000000, 97.811694
969.000000, 97.800874
970.000000, 97.803939
971.000000, 97.813451
972.000000, 97.805364
973.000000, 97.830485
974.000000, 97.836193
975.000000, 97.885486
976.000000, 97.920929
977.000000, 97.972552
978.000000, 98.009568
979.000000, 98.048571
980.000000, 98.094034
981.000000, 98.123302
982.000000, 98.135976
983.000000, 98.145496
984.000000, 98.180501
985.000000, 98.152179
986.000000, 98.127393
987.000000, 98.117784
988.000000, 98.078962
989.000000, 98.060872
990.000000, 98.014670
991.000000, 97.966596
992.000000, 97.938226
993.000000, 97.906563
994.000000, 97.889576
995.000000, 97.875026
996.000000, 97.851631
997.000000, 97.867284
998.000000, 97.894446
999.000000, 97.940026
1000.000000, 97.950757
1001.000000, 97.975562
1002.000000, 98.024357
1003.000000, 98.049128
1004.000000, 98.101677
1005.000000, 98.135043
1006.000000, 98.167480
1007.000000, 98.181539
1008.000000, 98.210923
1009.000000, 98.206084
1010.000000, 98.213352
1011.000000, 98.186801
1012.000000, 98.179745
1013.000000, 98.169373
1014.000000, 98.130794
1015.000000, 98.087061
1016.000000, 98.059538
1017.000000, 98.046082
1018.000000, 98.005256
1019.000000, 97.975958
1020.000000, 97.972852
1021.000000, 97.993850
1022.000000, 97.983617
1023.000000, 98.002136
1024.000000, 98.003278
1025.000000, 98.038321
1026.000000, 98.088727
1027.000000, 98.134247
1028.000000, 98.163670
1029.000000, 98.206315
1030.000000, 98.242478
1031.000000, 98.278960
1032.000000, 98.319922
1033.000000, 98.329335
1034.000000, 98.347666
1035.000000, 98.352386
1036.000000, 98.342016
1037.000000, 98.315266
1038.000000, 98.275622
1039.000000, 98.220697
1040.000000, 98.180776
1041.000000, 98.114555
1042.000000, 98.047562
1043.000000, 97.973938
1044.000000, 97.891470
1045.000000, 97.839747
1046.000000, 97.765956
1047.000000, 97.696050
1048.000000, 97.649126
1049.000000, 97.591049
1050.000000, 97.322666
1051.000000, 97.286574
1052.000000, 97.249069
1053.000000, 97.240566
1054.000000, 97.240424
1055.000000, 97.208745
1056.000000, 97.223234
1057.000000, 97.223510
1058.000000, 97.246564
1059.000000, 97.226993
1060.000000, 97.224947
1061.000000, 97.233213
1062.000000, 97.238077
1063.000000, 97.228067
1064.000000, 97.211044
1065.000000, 97.211076
1066.000000, 97.211989
1067.000000, 97.183223
1068.000000, 97.184038
1069.000000, 97.163613
1070.000000, 97.148308
1071.000000, 97.153086
1072.000000, 97.122752
1073.000000, 97.112072
1074.000000, 97.098738
1075.000000, 97.086539
1076.000000, 97.079447
1077.000000, 97.080843
1078.000000, 97.083282
1079.000000, 97.140839
1080.000000, 97.107460
1081.000000, 97.198346
1082.000000, 97.224798
1083.000000, 97.228845
1084.000000, 97.260880
1085.000000, 97.298046
1086.000000, 97.295125
1087.000000, 97.336934
1088.000000, 97.338289
1089.000000, 97.350041
1090.000000, 97.354365
1091.000000, 97.371427
1092.000000, 97.400660
1093.000000, 97.365943
1094.000000, 97.354198
1095.000000, 97.315058
1096.000000, 97.306698
1097.000000, 97.277838
1098.000000, 97.246616
1099.000000, 97.188715
1100.000000, 97.129652
1101.000000, 97.214670
1102.000000, 97.071721
1103.000000, 97.109891
1104.000000, 97.061665
1105.000000, 97.059384
1106.000000, 97.048782
1107.000000, 97.042291
1108.000000, 97.027024
1109.000000, 97.102497
1110.000000, 97.061078
1111.000000, 97.116107
1112.000000, 97.171632
1113.000000, 97.114388
1114.000000, 97.268716
1115.000000, 97.287580
1116.000000, 97.319605
1117.000000, 97.312263
1118.000000, 97.409958
1119.000000, 97.505170
1120.000000, 97.530873
1121.000000, 97.441022
1122.000000, 97.556663
1123.000000, 97.567832
1124.000000, 97.585476
1125.000000, 97.539378
1126.000000, 97.553554
1127.000000, 97.494745
