# Wavelength  (nm), Transmission (%)
200.000000, 0.003174
201.000000, 0.003137
202.000000, 0.003021
203.000000, 0.002974
204.000000, 0.002923
205.000000, 0.002855
206.000000, 0.002781
207.000000, 0.002654
208.000000, 0.002550
209.000000, 0.002444
210.000000, 0.002399
211.000000, 0.002309
212.000000, 0.002255
213.000000, 0.002184
214.000000, 0.002088
215.000000, 0.002045
216.000000, 0.001970
217.000000, 0.001881
218.000000, 0.001805
219.000000, 0.001718
220.000000, 0.001666
221.000000, 0.001640
222.000000, 0.001571
223.000000, 0.001499
224.000000, 0.001437
225.000000, 0.001353
226.000000, 0.001340
227.000000, 0.001288
228.000000, 0.001225
229.000000, 0.001203
230.000000, 0.001166
231.000000, 0.001126
232.000000, 0.001096
233.000000, 0.001073
234.000000, 0.001020
235.000000, 0.000988
236.000000, 0.000960
237.000000, 0.000937
238.000000, 0.000925
239.000000, 0.000869
240.000000, 0.000862
241.000000, 0.000824
242.000000, 0.000797
243.000000, 0.000807
244.000000, 0.000760
245.000000, 0.000732
246.000000, 0.000716
247.000000, 0.000695
248.000000, 0.000667
249.000000, 0.000640
250.000000, 0.000651
251.000000, 0.000621
252.000000, 0.000600
253.000000, 0.000583
254.000000, 0.000559
255.000000, 0.000545
256.000000, 0.000529
257.000000, 0.000513
258.000000, 0.000504
259.000000, 0.000493
260.000000, 0.000463
261.000000, 0.000459
262.000000, 0.000444
263.000000, 0.000436
264.000000, 0.000416
265.000000, 0.000389
266.000000, 0.000407
267.000000, 0.000391
268.000000, 0.000374
269.000000, 0.000367
270.000000, 0.000358
271.000000, 0.000328
272.000000, 0.000341
273.000000, 0.000319
274.000000, 0.000330
275.000000, 0.000305
276.000000, 0.000315
277.000000, 0.000306
278.000000, 0.000297
279.000000, 0.000293
280.000000, 0.000284
281.000000, 0.000265
282.000000, 0.000289
283.000000, 0.000268
284.000000, 0.000249
285.000000, 0.000263
286.000000, 0.000255
287.000000, 0.000254
288.000000, 0.000242
289.000000, 0.000264
290.000000, 0.000257
291.000000, 0.000248
292.000000, 0.000245
293.000000, 0.000241
294.000000, 0.000257
295.000000, 0.000236
296.000000, 0.000261
297.000000, 0.000246
298.000000, 0.000245
299.000000, 0.000240
300.000000, 0.000256
301.000000, 0.000264
302.000000, 0.000249
303.000000, 0.000276
304.000000, 0.000286
305.000000, 0.000278
306.000000, 0.000275
307.000000, 0.000307
308.000000, 0.000308
309.000000, 0.000320
310.000000, 0.000305
311.000000, 0.000323
312.000000, 0.000334
313.000000, 0.000353
314.000000, 0.000356
315.000000, 0.000349
316.000000, 0.000365
317.000000, 0.000399
318.000000, 0.000387
319.000000, 0.000412
320.000000, 0.000417
321.000000, 0.000401
322.000000, 0.000412
323.000000, 0.000426
324.000000, 0.000398
325.000000, 0.000442
326.000000, 0.000395
327.000000, 0.000421
328.000000, 0.000411
329.000000, 0.000442
330.000000, 0.000430
331.000000, 0.000401
332.000000, 0.000417
333.000000, 0.000398
334.000000, 0.000368
335.000000, 0.000395
336.000000, 0.000366
337.000000, 0.000368
338.000000, 0.000366
339.000000, 0.000348
340.000000, 0.000350
341.000000, 0.000349
342.000000, 0.000369
343.000000, 0.000324
344.000000, 0.000305
345.000000, 0.000317
346.000000, 0.000330
347.000000, 0.000289
348.000000, 0.000298
349.000000, 0.000151
350.000000, 0.000340
351.000000, 0.000334
352.000000, 0.000328
353.000000, 0.000301
354.000000, 0.000313
355.000000, 0.000288
356.000000, 0.000290
357.000000, 0.000290
358.000000, 0.000266
359.000000, 0.000288
360.000000, 0.000270
361.000000, 0.000270
362.000000, 0.000258
363.000000, 0.000246
364.000000, 0.000248
365.000000, 0.000242
366.000000, 0.000246
367.000000, 0.000225
368.000000, 0.000252
369.000000, 0.000230
370.000000, 0.000232
371.000000, 0.000206
372.000000, 0.000233
373.000000, 0.000227
374.000000, 0.000226
375.000000, 0.000221
376.000000, 0.000216
377.000000, 0.000203
378.000000, 0.000217
379.000000, 0.000210
380.000000, 0.000198
381.000000, 0.000196
382.000000, 0.000207
383.000000, 0.000190
384.000000, 0.000208
385.000000, 0.000203
386.000000, 0.000216
387.000000, 0.000264
388.000000, 0.000349
389.000000, 0.000603
390.000000, 0.001229
391.000000, 0.003053
392.000000, 0.008474
393.000000, 0.026996
394.000000, 0.093922
395.000000, 0.367011
396.000000, 1.533575
397.000000, 5.731854
398.000000, 15.489815
399.000000, 29.381281
400.000000, 43.361870
401.000000, 53.598618
402.000000, 60.402985
403.000000, 65.074074
404.000000, 68.218208
405.000000, 70.250763
406.000000, 71.593658
407.000000, 72.593185
408.000000, 73.495308
409.000000, 74.633911
410.000000, 76.065536
411.000000, 77.768692
412.000000, 79.266754
413.000000, 80.387779
414.000000, 80.980507
415.000000, 80.971489
416.000000, 80.701050
417.000000, 80.409256
418.000000, 80.308403
419.000000, 80.586662
420.000000, 81.211861
421.000000, 82.122772
422.000000, 83.055237
423.000000, 83.972801
424.000000, 84.642807
425.000000, 84.967789
426.000000, 84.994514
427.000000, 84.690659
428.000000, 84.272072
429.000000, 83.797043
430.000000, 83.358437
431.000000, 83.049248
432.000000, 82.894669
433.000000, 82.934715
434.000000, 83.107269
435.000000, 83.442696
436.000000, 83.883484
437.000000, 84.403732
438.000000, 84.916618
439.000000, 85.434074
440.000000, 85.936790
441.000000, 86.387787
442.000000, 86.811836
443.000000, 87.192528
444.000000, 87.483253
445.000000, 87.703033
446.000000, 87.934532
447.000000, 88.138657
448.000000, 88.335159
449.000000, 88.421875
450.000000, 88.567284
451.000000, 88.696114
452.000000, 88.760498
453.000000, 88.860115
454.000000, 88.948998
455.000000, 89.017448
456.000000, 89.089752
457.000000, 89.147446
458.000000, 89.130493
459.000000, 89.166115
460.000000, 89.191505
461.000000, 89.187126
462.000000, 89.197121
463.000000, 89.236809
464.000000, 89.242867
465.000000, 89.276680
466.000000, 89.358681
467.000000, 89.387299
468.000000, 89.438400
469.000000, 89.451416
470.000000, 89.391479
471.000000, 89.346107
472.000000, 89.157959
473.000000, 88.911583
474.000000, 88.534637
475.000000, 88.097282
476.000000, 87.575615
477.000000, 86.985710
478.000000, 86.378166
479.000000, 85.725243
480.000000, 85.151421
481.000000, 84.592262
482.000000, 84.133003
483.000000, 83.824471
484.000000, 83.647415
485.000000, 83.633461
486.000000, 83.787849
487.000000, 84.056015
488.000000, 84.523735
489.000000, 85.093353
490.000000, 85.824028
491.000000, 86.561050
492.000000, 87.356224
493.000000, 88.139000
494.000000, 88.806702
495.000000, 89.376450
496.000000, 89.798492
497.000000, 90.049538
498.000000, 90.086899
499.000000, 89.866554
500.000000, 89.509506
501.000000, 88.946655
502.000000, 88.201904
503.000000, 87.370750
504.000000, 86.511208
505.000000, 85.634544
506.000000, 84.807510
507.000000, 84.048935
508.000000, 83.443329
509.000000, 82.947517
510.000000, 82.595909
511.000000, 82.440117
512.000000, 82.455421
513.000000, 82.640961
514.000000, 82.962273
515.000000, 83.451500
516.000000, 84.136551
517.000000, 84.838654
518.000000, 85.653778
519.000000, 86.489983
520.000000, 87.317024
521.000000, 88.087669
522.000000, 88.801476
523.000000, 89.396423
524.000000, 89.881577
525.000000, 90.176216
526.000000, 90.299477
527.000000, 90.302261
528.000000, 90.070786
529.000000, 89.759781
530.000000, 89.359024
531.000000, 88.815300
532.000000, 88.201622
533.000000, 87.611748
534.000000, 87.011635
535.000000, 86.450844
536.000000, 85.980934
537.000000, 85.539719
538.000000, 85.190994
539.000000, 85.010368
540.000000, 84.870369
541.000000, 84.864410
542.000000, 84.980232
543.000000, 85.163673
544.000000, 85.504082
545.000000, 85.872688
546.000000, 86.321892
547.000000, 86.784653
548.000000, 87.348816
549.000000, 87.886650
550.000000, 88.390175
551.000000, 88.882706
552.000000, 89.346710
553.000000, 89.712158
554.000000, 90.002754
555.000000, 90.304192
556.000000, 90.390572
557.000000, 90.468941
558.000000, 90.429855
559.000000, 90.261551
560.000000, 90.104607
561.000000, 89.849472
562.000000, 89.523392
563.000000, 89.232597
564.000000, 88.893135
565.000000, 88.551155
566.000000, 88.209602
567.000000, 87.881775
568.000000, 87.649193
569.000000, 87.397346
570.000000, 87.197319
571.000000, 87.085732
572.000000, 86.961876
573.000000, 86.962601
574.000000, 86.999763
575.000000, 87.062988
576.000000, 87.199005
577.000000, 87.386314
578.000000, 87.587891
579.000000, 87.838516
580.000000, 88.105904
581.000000, 88.318855
582.000000, 88.566650
583.000000, 88.820335
584.000000, 89.057014
585.000000, 89.244286
586.000000, 89.426353
587.000000, 89.575157
588.000000, 89.672562
589.000000, 89.727104
590.000000, 89.720200
591.000000, 89.721695
592.000000, 89.648163
593.000000, 89.540276
594.000000, 89.408943
595.000000, 89.284409
596.000000, 89.039284
597.000000, 88.852463
598.000000, 88.698189
599.000000, 88.474770
600.000000, 88.271904
601.000000, 88.060966
602.000000, 87.866608
603.000000, 87.711792
604.000000, 87.543312
605.000000, 87.416763
606.000000, 87.327515
607.000000, 87.234459
608.000000, 87.180504
609.000000, 87.170662
610.000000, 87.177567
611.000000, 87.187210
612.000000, 87.270287
613.000000, 87.310394
614.000000, 87.426888
615.000000, 87.556854
616.000000, 87.639282
617.000000, 87.775681
618.000000, 87.927170
619.000000, 88.033363
620.000000, 88.192856
621.000000, 88.314461
622.000000, 88.448021
623.000000, 88.569542
624.000000, 88.690338
625.000000, 88.798790
626.000000, 88.888596
627.000000, 88.974419
628.000000, 89.050499
629.000000, 89.082756
630.000000, 89.131508
631.000000, 89.164635
632.000000, 89.197548
633.000000, 89.208710
634.000000, 89.233246
635.000000, 89.213928
636.000000, 89.178917
637.000000, 89.171669
638.000000, 89.179512
639.000000, 89.176628
640.000000, 89.196465
641.000000, 89.164886
642.000000, 89.162132
643.000000, 89.158951
644.000000, 89.190926
645.000000, 89.176277
646.000000, 89.187431
647.000000, 89.218254
648.000000, 89.225304
649.000000, 89.259666
650.000000, 89.286156
651.000000, 89.351494
652.000000, 89.363968
653.000000, 89.381157
654.000000, 89.438759
655.000000, 89.458115
656.000000, 89.507858
657.000000, 89.560661
658.000000, 89.558640
659.000000, 89.584419
660.000000, 89.571068
661.000000, 89.618324
662.000000, 89.619598
663.000000, 89.584900
664.000000, 89.580437
665.000000, 89.541199
666.000000, 89.529129
667.000000, 89.488258
668.000000, 89.424477
669.000000, 89.369545
670.000000, 89.332603
671.000000, 89.292587
672.000000, 89.208015
673.000000, 89.138016
674.000000, 89.094971
675.000000, 89.019516
676.000000, 88.973602
677.000000, 88.880745
678.000000, 88.816406
679.000000, 88.775841
680.000000, 88.694534
681.000000, 88.650391
682.000000, 88.580696
683.000000, 88.580460
684.000000, 88.524948
685.000000, 88.480362
686.000000, 88.468460
687.000000, 88.492546
688.000000, 88.440796
689.000000, 88.419510
690.000000, 88.401253
691.000000, 88.449966
692.000000, 88.476097
693.000000, 88.512794
694.000000, 88.532562
695.000000, 88.548073
696.000000, 88.597137
697.000000, 88.573502
698.000000, 88.659073
699.000000, 88.676826
700.000000, 88.711212
701.000000, 88.763100
702.000000, 88.800659
703.000000, 88.820221
704.000000, 88.847237
705.000000, 88.881874
706.000000, 88.879204
707.000000, 88.863113
708.000000, 88.859474
709.000000, 88.900681
710.000000, 88.868393
711.000000, 88.841911
712.000000, 88.844444
713.000000, 88.798653
714.000000, 88.741676
715.000000, 88.747284
716.000000, 88.648354
717.000000, 88.599098
718.000000, 88.562981
719.000000, 88.522888
720.000000, 88.432655
721.000000, 88.406212
722.000000, 88.265083
723.000000, 88.198753
724.000000, 88.154800
725.000000, 88.005402
726.000000, 88.000198
727.000000, 87.879295
728.000000, 87.805824
729.000000, 87.725479
730.000000, 87.637512
731.000000, 87.591461
732.000000, 87.472038
733.000000, 87.434471
734.000000, 87.369217
735.000000, 87.338287
736.000000, 87.269989
737.000000, 87.216866
738.000000, 87.151657
739.000000, 87.095421
740.000000, 87.078163
741.000000, 87.070145
742.000000, 87.039856
743.000000, 87.042259
744.000000, 86.984726
745.000000, 86.971352
746.000000, 86.933495
747.000000, 86.950249
748.000000, 86.971817
749.000000, 86.986900
750.000000, 86.937370
751.000000, 87.049423
752.000000, 87.009575
753.000000, 87.027184
754.000000, 87.048119
755.000000, 87.104729
756.000000, 87.134430
757.000000, 87.117996
758.000000, 87.175468
759.000000, 87.217270
760.000000, 87.245979
761.000000, 87.262253
762.000000, 87.295166
763.000000, 87.364922
764.000000, 87.368324
765.000000, 87.406769
766.000000, 87.431702
767.000000, 87.474731
768.000000, 87.526146
769.000000, 87.520424
770.000000, 87.597717
771.000000, 87.624603
772.000000, 87.620476
773.000000, 87.611671
774.000000, 87.630425
775.000000, 87.694176
776.000000, 87.742180
777.000000, 87.744858
778.000000, 87.708076
779.000000, 87.748512
780.000000, 87.802528
781.000000, 87.818108
782.000000, 87.758133
783.000000, 87.709312
784.000000, 87.759171
785.000000, 87.743340
786.000000, 87.801338
787.000000, 87.711952
788.000000, 87.732735
789.000000, 87.792656
790.000000, 87.720634
791.000000, 87.693611
792.000000, 87.591904
793.000000, 87.678925
794.000000, 87.547958
795.000000, 87.549568
796.000000, 87.432381
797.000000, 87.456093
798.000000, 87.313858
799.000000, 87.312233
800.000000, 86.555641
801.000000, 86.465477
802.000000, 86.407890
803.000000, 86.223969
804.000000, 86.214134
805.000000, 86.129555
806.000000, 85.997864
807.000000, 86.000732
808.000000, 85.846397
809.000000, 85.758011
810.000000, 85.709793
811.000000, 85.534554
812.000000, 85.467842
813.000000, 85.383011
814.000000, 85.208778
815.000000, 85.099884
816.000000, 85.001862
817.000000, 84.971527
818.000000, 84.796936
819.000000, 84.731949
820.000000, 84.589333
821.000000, 84.534195
822.000000, 84.282883
823.000000, 84.259995
824.000000, 84.142624
825.000000, 83.994469
826.000000, 83.976883
827.000000, 83.844345
828.000000, 83.658379
829.000000, 83.579262
830.000000, 83.565483
831.000000, 83.417038
832.000000, 83.274353
833.000000, 83.239342
834.000000, 83.229805
835.000000, 83.096054
836.000000, 83.066864
837.000000, 83.057098
838.000000, 82.874451
839.000000, 82.904228
840.000000, 83.008171
841.000000, 82.845650
842.000000, 82.837936
843.000000, 82.816719
844.000000, 82.788239
845.000000, 82.872711
846.000000, 82.862381
847.000000, 82.814003
848.000000, 82.924690
849.000000, 82.953819
850.000000, 82.953201
851.000000, 82.926918
852.000000, 82.991394
853.000000, 82.963501
854.000000, 83.109711
855.000000, 83.172684
856.000000, 83.185822
857.000000, 83.309425
858.000000, 83.371712
859.000000, 83.458412
860.000000, 83.536217
861.000000, 83.688599
862.000000, 83.719765
863.000000, 83.840088
864.000000, 83.955666
865.000000, 83.987534
866.000000, 84.093208
867.000000, 84.115715
868.000000, 84.234528
869.000000, 84.421379
870.000000, 84.380074
871.000000, 84.550423
872.000000, 84.640671
873.000000, 84.631737
874.000000, 84.867928
875.000000, 84.872421
876.000000, 85.017548
877.000000, 84.959480
878.000000, 85.075485
879.000000, 85.225037
880.000000, 85.150024
881.000000, 85.128105
882.000000, 85.295731
883.000000, 85.293701
884.000000, 85.244987
885.000000, 85.356461
886.000000, 85.219315
887.000000, 85.263290
888.000000, 85.213303
889.000000, 85.241234
890.000000, 85.206398
891.000000, 85.137299
892.000000, 85.127472
893.000000, 85.063927
894.000000, 85.013908
895.000000, 84.874512
896.000000, 84.738998
897.000000, 84.705177
898.000000, 84.645096
899.000000, 84.486160
900.000000, 84.473633
901.000000, 84.355743
902.000000, 84.172989
903.000000, 84.098579
904.000000, 83.944878
905.000000, 83.799187
906.000000, 83.684418
907.000000, 83.591202
908.000000, 83.424721
909.000000, 83.374260
910.000000, 83.123062
911.000000, 83.062302
912.000000, 82.910065
913.000000, 82.877190
914.000000, 82.674637
915.000000, 82.500443
916.000000, 82.433228
917.000000, 82.249161
918.000000, 82.187904
919.000000, 81.999176
920.000000, 81.962387
921.000000, 81.835815
922.000000, 81.794212
923.000000, 81.649223
924.000000, 81.548225
925.000000, 81.559792
926.000000, 81.380043
927.000000, 81.398735
928.000000, 81.346802
929.000000, 81.347687
930.000000, 81.259933
931.000000, 81.175552
932.000000, 81.224602
933.000000, 81.141319
934.000000, 81.292686
935.000000, 81.230957
936.000000, 81.210350
937.000000, 81.125732
938.000000, 81.232567
939.000000, 81.270645
940.000000, 81.230782
941.000000, 81.334778
942.000000, 81.381989
943.000000, 81.485275
944.000000, 81.566193
945.000000, 81.642853
946.000000, 81.651398
947.000000, 81.741875
948.000000, 81.906937
949.000000, 81.910858
950.000000, 82.055901
951.000000, 82.162682
952.000000, 82.301765
953.000000, 82.411591
954.000000, 82.561371
955.000000, 82.622780
956.000000, 82.692177
957.000000, 82.846527
958.000000, 82.996422
959.000000, 83.176094
960.000000, 83.293053
961.000000, 83.386353
962.000000, 83.542595
963.000000, 83.680969
964.000000, 83.878624
965.000000, 83.966339
966.000000, 84.091309
967.000000, 84.154213
968.000000, 84.170151
969.000000, 84.279282
970.000000, 84.452927
971.000000, 84.546265
972.000000, 84.612450
973.000000, 84.668922
974.000000, 84.825447
975.000000, 84.893402
976.000000, 84.953598
977.000000, 84.868652
978.000000, 84.827896
979.000000, 84.962151
980.000000, 85.003212
981.000000, 85.006607
982.000000, 84.889389
983.000000, 85.015236
984.000000, 84.995071
985.000000, 84.900429
986.000000, 84.999947
987.000000, 84.869186
988.000000, 84.724457
989.000000, 84.686958
990.000000, 84.467484
991.000000, 84.589478
992.000000, 84.380791
993.000000, 84.293076
994.000000, 84.126801
995.000000, 83.944870
996.000000, 83.870712
997.000000, 83.691238
998.000000, 83.510231
999.000000, 83.385269
1000.000000, 83.148148
1001.000000, 82.979111
1002.000000, 82.787437
1003.000000, 82.542870
1004.000000, 82.385567
1005.000000, 82.230644
1006.000000, 82.006226
1007.000000, 81.712547
1008.000000, 81.493744
1009.000000, 81.257729
1010.000000, 81.068909
1011.000000, 80.849663
1012.000000, 80.497093
1013.000000, 80.392082
1014.000000, 80.162521
1015.000000, 79.847809
1016.000000, 79.738358
1017.000000, 79.359398
1018.000000, 79.173126
1019.000000, 79.011192
1020.000000, 78.734848
1021.000000, 78.545753
1022.000000, 78.345177
1023.000000, 78.123894
1024.000000, 77.809235
1025.000000, 77.811470
1026.000000, 77.565750
1027.000000, 77.281532
1028.000000, 77.061981
1029.000000, 76.938934
1030.000000, 76.794319
1031.000000, 76.668419
1032.000000, 76.538025
1033.000000, 76.310554
1034.000000, 76.212997
1035.000000, 76.096687
1036.000000, 75.928528
1037.000000, 75.933563
1038.000000, 75.774765
1039.000000, 75.699799
1040.000000, 75.564728
1041.000000, 75.517670
1042.000000, 75.409851
1043.000000, 75.344002
1044.000000, 75.339912
1045.000000, 75.314651
1046.000000, 75.290779
1047.000000, 75.210701
1048.000000, 75.193581
1049.000000, 75.279663
1050.000000, 75.251274
1051.000000, 75.206795
1052.000000, 75.306396
1053.000000, 75.300781
1054.000000, 75.296249
1055.000000, 75.441673
1056.000000, 75.516281
1057.000000, 75.536270
1058.000000, 75.646912
1059.000000, 75.713577
1060.000000, 75.726814
1061.000000, 76.000092
1062.000000, 76.007599
1063.000000, 76.196014
1064.000000, 76.326462
1065.000000, 76.426468
1066.000000, 76.691559
1067.000000, 76.722755
1068.000000, 76.863136
1069.000000, 77.086601
1070.000000, 77.225861
1071.000000, 77.469025
1072.000000, 77.655685
