# Wavelength  (nm), Transmission (%)
200.000000, -0.000017
201.000000, -0.000013
202.000000, -0.000022
203.000000, 0.000004
204.000000, -0.000012
205.000000, -0.000006
206.000000, -0.000013
207.000000, 0.000003
208.000000, -0.000004
209.000000, -0.000007
210.000000, -0.000000
211.000000, -0.000009
212.000000, 0.000000
213.000000, 0.000003
214.000000, -0.000014
215.000000, 0.000001
216.000000, -0.000006
217.000000, 0.000006
218.000000, 0.000007
219.000000, -0.000010
220.000000, 0.000005
221.000000, 0.000005
222.000000, -0.000009
223.000000, 0.000004
224.000000, 0.000004
225.000000, -0.000007
226.000000, 0.000009
227.000000, -0.000002
228.000000, -0.000001
229.000000, 0.000008
230.000000, 0.000006
231.000000, 0.000006
232.000000, 0.000002
233.000000, -0.000000
234.000000, 0.000004
235.000000, 0.000010
236.000000, 0.000003
237.000000, 0.000010
238.000000, 0.000016
239.000000, 0.000005
240.000000, 0.000004
241.000000, 0.000002
242.000000, 0.000002
243.000000, 0.000015
244.000000, 0.000008
245.000000, 0.000006
246.000000, 0.000016
247.000000, -0.000001
248.000000, 0.000005
249.000000, 0.000001
250.000000, 0.000017
251.000000, 0.000005
252.000000, 0.000007
253.000000, 0.000002
254.000000, 0.000001
255.000000, 0.000006
256.000000, 0.000002
257.000000, 0.000004
258.000000, 0.000005
259.000000, 0.000016
260.000000, 0.000003
261.000000, 0.000004
262.000000, 0.000006
263.000000, 0.000004
264.000000, 0.000021
265.000000, 0.000001
266.000000, 0.000001
267.000000, 0.000017
268.000000, 0.000003
269.000000, 0.000006
270.000000, 0.000010
271.000000, 0.000003
272.000000, 0.000006
273.000000, 0.000014
274.000000, 0.000006
275.000000, 0.000008
276.000000, 0.000012
277.000000, 0.000007
278.000000, 0.000004
279.000000, 0.000004
280.000000, 0.000022
281.000000, 0.000007
282.000000, 0.000007
283.000000, 0.000022
284.000000, 0.000003
285.000000, 0.000003
286.000000, 0.000019
287.000000, 0.000001
288.000000, 0.000008
289.000000, 0.000015
290.000000, 0.000009
291.000000, 0.000023
292.000000, 0.000002
293.000000, 0.000005
294.000000, 0.000021
295.000000, 0.000012
296.000000, 0.000004
297.000000, 0.000018
298.000000, 0.000008
299.000000, 0.000011
300.000000, 0.000009
301.000000, 0.000008
302.000000, 0.000023
303.000000, 0.000009
304.000000, 0.000019
305.000000, -0.000001
306.000000, -0.000000
307.000000, 0.000007
308.000000, 0.000003
309.000000, 0.000013
310.000000, 0.000005
311.000000, 0.000002
312.000000, 0.000009
313.000000, 0.000008
314.000000, 0.000009
315.000000, 0.000016
316.000000, 0.000004
317.000000, 0.000005
318.000000, 0.000012
319.000000, 0.000005
320.000000, 0.000015
321.000000, -0.000005
322.000000, 0.000018
323.000000, 0.000011
324.000000, -0.000001
325.000000, 0.000024
326.000000, 0.000006
327.000000, 0.000011
328.000000, 0.000009
329.000000, 0.000019
330.000000, 0.000012
331.000000, 0.000009
332.000000, 0.000016
333.000000, 0.000002
334.000000, 0.000003
335.000000, 0.000012
336.000000, 0.000020
337.000000, -0.000005
338.000000, 0.000009
339.000000, 0.000004
340.000000, -0.000004
341.000000, 0.000012
342.000000, 0.000009
343.000000, 0.000008
344.000000, -0.000000
345.000000, 0.000004
346.000000, -0.000000
347.000000, 0.000001
348.000000, 0.000004
349.000000, -0.000128
350.000000, -0.000016
351.000000, 0.000013
352.000000, 0.000001
353.000000, -0.000011
354.000000, 0.000003
355.000000, -0.000011
356.000000, -0.000002
357.000000, 0.000001
358.000000, -0.000018
359.000000, 0.000005
360.000000, -0.000016
361.000000, 0.000003
362.000000, 0.000007
363.000000, -0.000005
364.000000, 0.000005
365.000000, 0.000002
366.000000, -0.000001
367.000000, -0.000011
368.000000, -0.000002
369.000000, -0.000003
370.000000, -0.000001
371.000000, -0.000009
372.000000, -0.000001
373.000000, 0.000000
374.000000, 0.000002
375.000000, 0.000010
376.000000, -0.000001
377.000000, -0.000009
378.000000, -0.000000
379.000000, 0.000002
380.000000, 0.000006
381.000000, 0.000002
382.000000, -0.000001
383.000000, -0.000007
384.000000, 0.000004
385.000000, 0.000001
386.000000, 0.000006
387.000000, 0.000002
388.000000, -0.000004
389.000000, 0.000005
390.000000, 0.000011
391.000000, 0.000009
392.000000, 0.000005
393.000000, 0.000003
394.000000, -0.000009
395.000000, 0.000001
396.000000, 0.000008
397.000000, 0.000007
398.000000, 0.000003
399.000000, -0.000002
400.000000, 0.000009
401.000000, 0.000006
402.000000, 0.000009
403.000000, 0.000017
404.000000, -0.000003
405.000000, 0.000005
406.000000, 0.000011
407.000000, 0.000012
408.000000, 0.000007
409.000000, -0.000005
410.000000, 0.000008
411.000000, 0.000004
412.000000, 0.000013
413.000000, 0.000005
414.000000, 0.000009
415.000000, 0.000005
416.000000, 0.000010
417.000000, 0.000000
418.000000, 0.000004
419.000000, 0.000005
420.000000, 0.000001
421.000000, 0.000008
422.000000, 0.000011
423.000000, 0.000011
424.000000, -0.000007
425.000000, 0.000009
426.000000, 0.000010
427.000000, -0.000006
428.000000, 0.000011
429.000000, 0.000011
430.000000, 0.000016
431.000000, -0.000001
432.000000, 0.000007
433.000000, 0.000011
434.000000, 0.000004
435.000000, -0.000002
436.000000, 0.000016
437.000000, 0.000008
438.000000, 0.000009
439.000000, 0.000008
440.000000, 0.000006
441.000000, -0.000004
442.000000, 0.000010
443.000000, 0.000004
444.000000, 0.000003
445.000000, 0.000005
446.000000, 0.000011
447.000000, 0.000006
448.000000, -0.000008
449.000000, 0.000008
450.000000, 0.000004
451.000000, 0.000005
452.000000, 0.000001
453.000000, 0.000000
454.000000, 0.000015
455.000000, 0.000009
456.000000, 0.000009
457.000000, 0.000008
458.000000, 0.000003
459.000000, 0.000003
460.000000, 0.000001
461.000000, -0.000001
462.000000, 0.000002
463.000000, 0.000006
464.000000, 0.000001
465.000000, 0.000000
466.000000, 0.000004
467.000000, 0.000005
468.000000, 0.000004
469.000000, 0.000006
470.000000, 0.000006
471.000000, 0.000006
472.000000, 0.000004
473.000000, -0.000004
474.000000, -0.000003
475.000000, 0.000006
476.000000, 0.000007
477.000000, 0.000002
478.000000, 0.000001
479.000000, 0.000003
480.000000, 0.000007
481.000000, -0.000001
482.000000, 0.000005
483.000000, 0.000005
484.000000, 0.000000
485.000000, 0.000003
486.000000, 0.000000
487.000000, 0.000005
488.000000, 0.000003
489.000000, -0.000005
490.000000, -0.000003
491.000000, 0.000003
492.000000, -0.000002
493.000000, 0.000002
494.000000, 0.000009
495.000000, -0.000001
496.000000, 0.000000
497.000000, -0.000000
498.000000, 0.000001
499.000000, -0.000001
500.000000, 0.000001
501.000000, 0.000003
502.000000, 0.000002
503.000000, -0.000002
504.000000, 0.000003
505.000000, 0.000002
506.000000, 0.000008
507.000000, -0.000003
508.000000, 0.000002
509.000000, 0.000001
510.000000, -0.000000
511.000000, 0.000005
512.000000, -0.000000
513.000000, -0.000004
514.000000, 0.000003
515.000000, -0.000000
516.000000, -0.000005
517.000000, -0.000004
518.000000, 0.000005
519.000000, 0.000003
520.000000, 0.000003
521.000000, 0.000002
522.000000, 0.000005
523.000000, 0.000010
524.000000, 0.000009
525.000000, 0.000000
526.000000, 0.000001
527.000000, 0.000004
528.000000, 0.000001
529.000000, 0.000002
530.000000, 0.000006
531.000000, 0.000005
532.000000, 0.000001
533.000000, 0.000002
534.000000, 0.000005
535.000000, 0.000004
536.000000, 0.000011
537.000000, 0.000002
538.000000, 0.000011
539.000000, 0.000010
540.000000, 0.000005
541.000000, 0.000005
542.000000, 0.000023
543.000000, 0.000006
544.000000, 0.000011
545.000000, 0.000009
546.000000, 0.000010
547.000000, 0.000016
548.000000, 0.000019
549.000000, 0.000022
550.000000, 0.000023
551.000000, 0.000031
552.000000, 0.000031
553.000000, 0.000030
554.000000, 0.000038
555.000000, 0.000044
556.000000, 0.000043
557.000000, 0.000057
558.000000, 0.000052
559.000000, 0.000048
560.000000, 0.000041
561.000000, 0.000049
562.000000, 0.000034
563.000000, 0.000036
564.000000, 0.000047
565.000000, 0.000048
566.000000, 0.000061
567.000000, 0.000068
568.000000, 0.000091
569.000000, 0.000093
570.000000, 0.000096
571.000000, 0.000091
572.000000, 0.000095
573.000000, 0.000075
574.000000, 0.000074
575.000000, 0.000073
576.000000, 0.000073
577.000000, 0.000080
578.000000, 0.000086
579.000000, 0.000104
580.000000, 0.000108
581.000000, 0.000150
582.000000, 0.000187
583.000000, 0.000200
584.000000, 0.000195
585.000000, 0.000192
586.000000, 0.000170
587.000000, 0.000143
588.000000, 0.000127
589.000000, 0.000130
590.000000, 0.000118
591.000000, 0.000128
592.000000, 0.000157
593.000000, 0.000163
594.000000, 0.000208
595.000000, 0.000249
596.000000, 0.000315
597.000000, 0.000366
598.000000, 0.000396
599.000000, 0.000397
600.000000, 0.000366
601.000000, 0.000306
602.000000, 0.000271
603.000000, 0.000242
604.000000, 0.000220
605.000000, 0.000210
606.000000, 0.000208
607.000000, 0.000221
608.000000, 0.000257
609.000000, 0.000296
610.000000, 0.000351
611.000000, 0.000434
612.000000, 0.000569
613.000000, 0.000716
614.000000, 0.000832
615.000000, 0.000907
616.000000, 0.000887
617.000000, 0.000817
618.000000, 0.000730
619.000000, 0.000630
620.000000, 0.000573
621.000000, 0.000546
622.000000, 0.000539
623.000000, 0.000553
624.000000, 0.000611
625.000000, 0.000670
626.000000, 0.000795
627.000000, 0.000971
628.000000, 0.001208
629.000000, 0.001460
630.000000, 0.001714
631.000000, 0.001825
632.000000, 0.001785
633.000000, 0.001621
634.000000, 0.001412
635.000000, 0.001214
636.000000, 0.001091
637.000000, 0.000989
638.000000, 0.000945
639.000000, 0.000926
640.000000, 0.000960
641.000000, 0.001048
642.000000, 0.001174
643.000000, 0.001387
644.000000, 0.001714
645.000000, 0.002145
646.000000, 0.002696
647.000000, 0.003292
648.000000, 0.003660
649.000000, 0.003686
650.000000, 0.003370
651.000000, 0.002879
652.000000, 0.002402
653.000000, 0.002019
654.000000, 0.001732
655.000000, 0.001559
656.000000, 0.001449
657.000000, 0.001425
658.000000, 0.001446
659.000000, 0.001534
660.000000, 0.001713
661.000000, 0.001964
662.000000, 0.002380
663.000000, 0.002965
664.000000, 0.003859
665.000000, 0.005064
666.000000, 0.006448
667.000000, 0.007546
668.000000, 0.007844
669.000000, 0.007244
670.000000, 0.006146
671.000000, 0.005002
672.000000, 0.004104
673.000000, 0.003473
674.000000, 0.003073
675.000000, 0.002822
676.000000, 0.002709
677.000000, 0.002719
678.000000, 0.002851
679.000000, 0.003105
680.000000, 0.003567
681.000000, 0.004284
682.000000, 0.005389
683.000000, 0.007103
684.000000, 0.009610
685.000000, 0.012637
686.000000, 0.015205
687.000000, 0.015598
688.000000, 0.013689
689.000000, 0.010781
690.000000, 0.008106
691.000000, 0.006235
692.000000, 0.004939
693.000000, 0.004090
694.000000, 0.003564
695.000000, 0.003251
696.000000, 0.003076
697.000000, 0.002994
698.000000, 0.003091
699.000000, 0.003281
700.000000, 0.003597
701.000000, 0.004183
702.000000, 0.005077
703.000000, 0.006527
704.000000, 0.008970
705.000000, 0.013060
706.000000, 0.019574
707.000000, 0.027393
708.000000, 0.032150
709.000000, 0.029568
710.000000, 0.022319
711.000000, 0.015211
712.000000, 0.010529
713.000000, 0.007669
714.000000, 0.005979
715.000000, 0.004903
716.000000, 0.004211
717.000000, 0.003780
718.000000, 0.003539
719.000000, 0.003411
720.000000, 0.003426
721.000000, 0.003578
722.000000, 0.003840
723.000000, 0.004287
724.000000, 0.005006
725.000000, 0.006077
726.000000, 0.007746
727.000000, 0.010682
728.000000, 0.015813
729.000000, 0.025340
730.000000, 0.041673
731.000000, 0.060036
732.000000, 0.066033
733.000000, 0.053782
734.000000, 0.035593
735.000000, 0.022566
736.000000, 0.015206
737.000000, 0.011169
738.000000, 0.008738
739.000000, 0.007327
740.000000, 0.006416
741.000000, 0.005886
742.000000, 0.005603
743.000000, 0.005528
744.000000, 0.005695
745.000000, 0.006118
746.000000, 0.006729
747.000000, 0.007866
748.000000, 0.009679
749.000000, 0.012592
750.000000, 0.017840
751.000000, 0.028544
752.000000, 0.052695
753.000000, 0.101650
754.000000, 0.156489
755.000000, 0.157271
756.000000, 0.102585
757.000000, 0.052571
758.000000, 0.028881
759.000000, 0.018224
760.000000, 0.012848
761.000000, 0.009851
762.000000, 0.008085
763.000000, 0.006938
764.000000, 0.006228
765.000000, 0.005875
766.000000, 0.005616
767.000000, 0.005689
768.000000, 0.005967
769.000000, 0.006433
770.000000, 0.007242
771.000000, 0.008566
772.000000, 0.010741
773.000000, 0.014725
774.000000, 0.022541
775.000000, 0.041732
776.000000, 0.097213
777.000000, 0.207499
778.000000, 0.266256
779.000000, 0.184502
780.000000, 0.077457
781.000000, 0.032499
782.000000, 0.017482
783.000000, 0.011145
784.000000, 0.007911
785.000000, 0.006015
786.000000, 0.004925
787.000000, 0.004102
788.000000, 0.003527
789.000000, 0.003241
790.000000, 0.003013
791.000000, 0.002870
792.000000, 0.002795
793.000000, 0.002853
794.000000, 0.002903
795.000000, 0.003054
796.000000, 0.003294
797.000000, 0.003637
798.000000, 0.004196
799.000000, 0.004886
800.000000, 0.129225
801.000000, 0.140631
802.000000, 0.155947
803.000000, 0.174435
804.000000, 0.196283
805.000000, 0.218912
806.000000, 0.240138
807.000000, 0.262000
808.000000, 0.281779
809.000000, 0.296936
810.000000, 0.307447
811.000000, 0.314076
812.000000, 0.317856
813.000000, 0.319682
814.000000, 0.320127
815.000000, 0.320728
816.000000, 0.320168
817.000000, 0.320039
818.000000, 0.318698
819.000000, 0.318541
820.000000, 0.316459
821.000000, 0.313785
822.000000, 0.305035
823.000000, 0.290291
824.000000, 0.271798
825.000000, 0.251416
826.000000, 0.228846
827.000000, 0.207040
828.000000, 0.185448
829.000000, 0.164159
830.000000, 0.143960
831.000000, 0.128701
832.000000, 0.115322
833.000000, 0.102286
834.000000, 0.089510
835.000000, 0.077502
836.000000, 0.065932
837.000000, 0.054575
838.000000, 0.043878
839.000000, 0.033760
840.000000, 0.023954
841.000000, 0.015032
842.000000, 0.006452
843.000000, 0.001150
844.000000, 0.000520
845.000000, 0.000292
846.000000, 0.000065
847.000000, 0.000274
848.000000, 0.000010
849.000000, 0.000130
850.000000, 0.000059
851.000000, 0.000202
852.000000, 0.000122
853.000000, 0.000200
854.000000, 0.000290
855.000000, 0.000186
856.000000, 0.000137
857.000000, 0.000006
858.000000, 0.000177
859.000000, 0.000106
860.000000, 0.000180
861.000000, 0.000193
862.000000, 0.000012
863.000000, 0.000206
864.000000, 0.000191
865.000000, 0.000016
866.000000, 0.000177
867.000000, 0.000231
868.000000, 0.000246
869.000000, 0.000200
870.000000, 0.000202
871.000000, 0.000217
872.000000, 0.000194
873.000000, 0.000245
874.000000, 0.000156
875.000000, 0.000266
876.000000, 0.000170
877.000000, 0.000183
878.000000, 0.000241
879.000000, 0.000268
880.000000, 0.000247
881.000000, 0.000215
882.000000, 0.000249
883.000000, 0.000305
884.000000, 0.000278
885.000000, 0.000209
886.000000, 0.000272
887.000000, 0.000163
888.000000, 0.000101
889.000000, 0.000215
890.000000, 0.000243
891.000000, 0.000198
892.000000, 0.000219
893.000000, 0.000170
894.000000, 0.000220
895.000000, 0.000113
896.000000, 0.000230
897.000000, 0.000202
898.000000, 0.000251
899.000000, 0.000229
900.000000, 0.000224
901.000000, 0.000226
902.000000, 0.000264
903.000000, 0.000240
904.000000, 0.000218
905.000000, 0.000198
906.000000, 0.000270
907.000000, 0.000198
908.000000, 0.000290
909.000000, 0.000139
910.000000, 0.000204
911.000000, 0.000280
912.000000, 0.000228
913.000000, 0.000247
914.000000, 0.000245
915.000000, 0.000158
916.000000, 0.000256
917.000000, 0.000177
918.000000, 0.000221
919.000000, 0.000159
920.000000, 0.000233
921.000000, 0.000285
922.000000, 0.000217
923.000000, 0.000179
924.000000, 0.000214
925.000000, 0.000146
926.000000, 0.000227
927.000000, 0.000285
928.000000, 0.000125
929.000000, 0.000242
930.000000, 0.000194
931.000000, 0.000131
932.000000, 0.000325
933.000000, 0.000196
934.000000, 0.000232
935.000000, 0.000179
936.000000, 0.000226
937.000000, 0.000123
938.000000, 0.000191
939.000000, 0.000154
940.000000, 0.000182
941.000000, 0.000193
942.000000, 0.000186
943.000000, 0.000302
944.000000, 0.000158
945.000000, 0.000186
946.000000, 0.000173
947.000000, 0.000183
948.000000, 0.000240
949.000000, 0.000194
950.000000, 0.000225
951.000000, 0.000266
952.000000, 0.000275
953.000000, 0.000146
954.000000, 0.000242
955.000000, 0.000203
956.000000, 0.000165
957.000000, 0.000214
958.000000, 0.000222
959.000000, 0.000230
960.000000, 0.000184
961.000000, 0.000214
962.000000, 0.000310
963.000000, 0.000227
964.000000, 0.000211
965.000000, 0.000237
966.000000, 0.000238
967.000000, 0.000210
968.000000, 0.000216
969.000000, 0.000263
970.000000, 0.000185
971.000000, 0.000300
972.000000, 0.000249
973.000000, 0.000139
974.000000, 0.000244
975.000000, 0.000206
976.000000, 0.000138
977.000000, 0.000220
978.000000, 0.000244
979.000000, 0.000272
980.000000, 0.000212
981.000000, 0.000264
982.000000, 0.000215
983.000000, 0.000244
984.000000, 0.000186
985.000000, 0.000223
986.000000, 0.000202
987.000000, 0.000172
988.000000, 0.000271
989.000000, 0.000240
990.000000, 0.000211
991.000000, 0.000215
992.000000, 0.000205
993.000000, 0.000288
994.000000, 0.000272
995.000000, 0.000222
996.000000, 0.000156
997.000000, 0.000199
998.000000, 0.000256
999.000000, 0.000267
1000.000000, 0.000255
1001.000000, 0.000200
1002.000000, 0.000195
1003.000000, 0.000242
1004.000000, 0.000167
1005.000000, 0.000236
1006.000000, 0.000229
1007.000000, 0.000238
1008.000000, 0.000254
1009.000000, 0.000287
1010.000000, 0.000193
1011.000000, 0.000188
1012.000000, 0.000171
1013.000000, 0.000289
1014.000000, 0.000196
1015.000000, 0.000247
1016.000000, 0.000232
1017.000000, 0.000222
1018.000000, 0.000227
1019.000000, 0.000244
1020.000000, 0.000257
1021.000000, 0.000239
1022.000000, 0.000226
1023.000000, 0.000247
1024.000000, 0.000315
1025.000000, 0.000248
1026.000000, 0.000223
1027.000000, 0.000282
1028.000000, 0.000221
1029.000000, 0.000221
1030.000000, 0.000223
1031.000000, 0.000244
1032.000000, 0.000255
1033.000000, 0.000251
1034.000000, 0.000242
1035.000000, 0.000279
1036.000000, 0.000268
1037.000000, 0.000205
1038.000000, 0.000332
1039.000000, 0.000290
1040.000000, 0.000220
1041.000000, 0.000213
1042.000000, 0.000355
1043.000000, 0.000267
1044.000000, 0.000306
1045.000000, 0.000297
1046.000000, 0.000292
1047.000000, 0.000281
1048.000000, 0.000313
1049.000000, 0.000293
1050.000000, 0.000386
1051.000000, 0.000326
1052.000000, 0.000417
1053.000000, 0.000349
1054.000000, 0.000437
1055.000000, 0.000454
1056.000000, 0.000526
1057.000000, 0.000483
1058.000000, 0.000518
1059.000000, 0.000492
1060.000000, 0.000645
1061.000000, 0.000674
1062.000000, 0.000641
1063.000000, 0.000760
1064.000000, 0.000691
1065.000000, 0.000877
1066.000000, 0.000994
1067.000000, 0.000980
1068.000000, 0.001220
1069.000000, 0.001270
1070.000000, 0.001415
1071.000000, 0.001647
1072.000000, 0.001728
1073.000000, 0.001885
1074.000000, 0.002235
1075.000000, 0.002382
1076.000000, 0.002665
1077.000000, 0.002945
1078.000000, 0.003323
1079.000000, 0.003754
1080.000000, 0.004225
1081.000000, 0.004784
1082.000000, 0.005465
1083.000000, 0.006134
1084.000000, 0.007068
1085.000000, 0.008099
1086.000000, 0.009173
1087.000000, 0.010477
1088.000000, 0.012049
1089.000000, 0.013880
1090.000000, 0.015958
1091.000000, 0.018364
1092.000000, 0.021328
1093.000000, 0.024600
1094.000000, 0.028539
1095.000000, 0.033141
1096.000000, 0.038773
1097.000000, 0.045503
1098.000000, 0.053136
