# Wavelength  (nm), Transmission (%)
200.000000, 0.005733
201.000000, 0.005626
202.000000, 0.005421
203.000000, 0.005296
204.000000, 0.005209
205.000000, 0.005105
206.000000, 0.004920
207.000000, 0.004869
208.000000, 0.004669
209.000000, 0.004568
210.000000, 0.004429
211.000000, 0.004298
212.000000, 0.004228
213.000000, 0.004188
214.000000, 0.004099
215.000000, 0.004051
216.000000, 0.003959
217.000000, 0.003949
218.000000, 0.003926
219.000000, 0.003902
220.000000, 0.003903
221.000000, 0.003899
222.000000, 0.003953
223.000000, 0.003916
224.000000, 0.003952
225.000000, 0.003949
226.000000, 0.004002
227.000000, 0.003978
228.000000, 0.003994
229.000000, 0.004002
230.000000, 0.004011
231.000000, 0.004034
232.000000, 0.004002
233.000000, 0.003986
234.000000, 0.003956
235.000000, 0.003936
236.000000, 0.003916
237.000000, 0.003884
238.000000, 0.003832
239.000000, 0.003777
240.000000, 0.003766
241.000000, 0.003709
242.000000, 0.003665
243.000000, 0.003680
244.000000, 0.003627
245.000000, 0.003608
246.000000, 0.003559
247.000000, 0.003544
248.000000, 0.003520
249.000000, 0.003486
250.000000, 0.003481
251.000000, 0.003394
252.000000, 0.003388
253.000000, 0.003373
254.000000, 0.003332
255.000000, 0.003312
256.000000, 0.003290
257.000000, 0.003226
258.000000, 0.003223
259.000000, 0.003214
260.000000, 0.003143
261.000000, 0.003086
262.000000, 0.003057
263.000000, 0.003044
264.000000, 0.003020
265.000000, 0.002972
266.000000, 0.002965
267.000000, 0.002933
268.000000, 0.002916
269.000000, 0.002902
270.000000, 0.002837
271.000000, 0.002860
272.000000, 0.002810
273.000000, 0.002832
274.000000, 0.002753
275.000000, 0.002714
276.000000, 0.002770
277.000000, 0.002713
278.000000, 0.002718
279.000000, 0.002699
280.000000, 0.002681
281.000000, 0.002662
282.000000, 0.002621
283.000000, 0.002592
284.000000, 0.002568
285.000000, 0.002539
286.000000, 0.002552
287.000000, 0.002528
288.000000, 0.002511
289.000000, 0.002455
290.000000, 0.002437
291.000000, 0.002360
292.000000, 0.002309
293.000000, 0.002304
294.000000, 0.002273
295.000000, 0.002137
296.000000, 0.002139
297.000000, 0.002012
298.000000, 0.001972
299.000000, 0.001925
300.000000, 0.001805
301.000000, 0.001725
302.000000, 0.001689
303.000000, 0.001589
304.000000, 0.001547
305.000000, 0.001428
306.000000, 0.001282
307.000000, 0.001221
308.000000, 0.001191
309.000000, 0.001078
310.000000, 0.001006
311.000000, 0.000936
312.000000, 0.000840
313.000000, 0.000808
314.000000, 0.000737
315.000000, 0.000707
316.000000, 0.000632
317.000000, 0.000589
318.000000, 0.000533
319.000000, 0.000520
320.000000, 0.000477
321.000000, 0.000454
322.000000, 0.000409
323.000000, 0.000373
324.000000, 0.000353
325.000000, 0.000355
326.000000, 0.000294
327.000000, 0.000292
328.000000, 0.000260
329.000000, 0.000260
330.000000, 0.000239
331.000000, 0.000224
332.000000, 0.000228
333.000000, 0.000197
334.000000, 0.000173
335.000000, 0.000181
336.000000, 0.000188
337.000000, 0.000166
338.000000, 0.000168
339.000000, 0.000163
340.000000, 0.000150
341.000000, 0.000156
342.000000, 0.000149
343.000000, 0.000146
344.000000, 0.000145
345.000000, 0.000134
346.000000, 0.000145
347.000000, 0.000131
348.000000, 0.000129
349.000000, 0.000027
350.000000, 0.000180
351.000000, 0.000206
352.000000, 0.000231
353.000000, 0.000254
354.000000, 0.000296
355.000000, 0.000351
356.000000, 0.000395
357.000000, 0.000437
358.000000, 0.000474
359.000000, 0.000492
360.000000, 0.000459
361.000000, 0.000449
362.000000, 0.000411
363.000000, 0.000382
364.000000, 0.000366
365.000000, 0.000341
366.000000, 0.000326
367.000000, 0.000326
368.000000, 0.000348
369.000000, 0.000361
370.000000, 0.000417
371.000000, 0.000471
372.000000, 0.000657
373.000000, 0.000936
374.000000, 0.001453
375.000000, 0.002226
376.000000, 0.002902
377.000000, 0.002901
378.000000, 0.002377
379.000000, 0.001688
380.000000, 0.001268
381.000000, 0.001003
382.000000, 0.000914
383.000000, 0.000896
384.000000, 0.000984
385.000000, 0.001170
386.000000, 0.001532
387.000000, 0.002240
388.000000, 0.003654
389.000000, 0.006645
390.000000, 0.013715
391.000000, 0.031088
392.000000, 0.076172
393.000000, 0.195258
394.000000, 0.511520
395.000000, 1.349431
396.000000, 3.106064
397.000000, 5.453734
398.000000, 7.504821
399.000000, 9.845485
400.000000, 14.786410
401.000000, 20.308468
402.000000, 20.150286
403.000000, 14.168152
404.000000, 8.907814
405.000000, 7.238995
406.000000, 8.556487
407.000000, 13.938503
408.000000, 25.386360
409.000000, 37.130646
410.000000, 39.073643
411.000000, 32.580711
412.000000, 28.226849
413.000000, 31.407166
414.000000, 40.068104
415.000000, 45.936214
416.000000, 41.672836
417.000000, 31.007538
418.000000, 22.495356
419.000000, 18.980165
420.000000, 19.535540
421.000000, 23.824430
422.000000, 31.587633
423.000000, 40.172054
424.000000, 44.800655
425.000000, 43.587845
426.000000, 40.031109
427.000000, 38.720486
428.000000, 41.612072
429.000000, 48.383034
430.000000, 55.316578
431.000000, 57.214386
432.000000, 52.009167
433.000000, 43.401207
434.000000, 36.135124
435.000000, 32.199421
436.000000, 31.618467
437.000000, 33.879852
438.000000, 38.454468
439.000000, 44.208538
440.000000, 49.179611
441.000000, 51.722569
442.000000, 51.755585
443.000000, 50.673729
444.000000, 50.306087
445.000000, 51.812542
446.000000, 55.465443
447.000000, 60.719238
448.000000, 66.290710
449.000000, 70.148911
450.000000, 71.161446
451.000000, 69.466904
452.000000, 66.531097
453.000000, 63.840683
454.000000, 62.192814
455.000000, 61.903645
456.000000, 62.743454
457.000000, 64.283096
458.000000, 66.073349
459.000000, 67.620186
460.000000, 68.719696
461.000000, 69.327179
462.000000, 69.557854
463.000000, 69.601448
464.000000, 69.715103
465.000000, 69.896767
466.000000, 70.183792
467.000000, 70.660675
468.000000, 71.292892
469.000000, 72.097847
470.000000, 73.129112
471.000000, 74.201691
472.000000, 75.166901
473.000000, 75.856102
474.000000, 76.173599
475.000000, 76.106934
476.000000, 75.794098
477.000000, 75.400879
478.000000, 75.231758
479.000000, 75.345459
480.000000, 75.926567
481.000000, 76.892632
482.000000, 78.080765
483.000000, 79.240021
484.000000, 80.197678
485.000000, 80.799606
486.000000, 80.991173
487.000000, 80.945030
488.000000, 80.821632
489.000000, 80.878876
490.000000, 81.173363
491.000000, 81.712639
492.000000, 82.363167
493.000000, 82.845406
494.000000, 83.004471
495.000000, 82.753693
496.000000, 82.036980
497.000000, 80.998100
498.000000, 79.993340
499.000000, 79.273018
500.000000, 79.041039
501.000000, 79.451462
502.000000, 80.441650
503.000000, 81.865639
504.000000, 83.477776
505.000000, 85.006592
506.000000, 86.116447
507.000000, 86.577454
508.000000, 86.402542
509.000000, 85.762924
510.000000, 84.916702
511.000000, 84.140900
512.000000, 83.738838
513.000000, 83.735054
514.000000, 84.117516
515.000000, 84.814156
516.000000, 85.501289
517.000000, 85.978577
518.000000, 86.037254
519.000000, 85.577454
520.000000, 84.603668
521.000000, 83.367538
522.000000, 82.089516
523.000000, 81.069878
524.000000, 80.455566
525.000000, 80.373657
526.000000, 80.877647
527.000000, 81.823318
528.000000, 83.117981
529.000000, 84.542984
530.000000, 85.806496
531.000000, 86.796661
532.000000, 87.323029
533.000000, 87.399986
534.000000, 87.165482
535.000000, 86.699890
536.000000, 86.256096
537.000000, 85.946144
538.000000, 85.879570
539.000000, 86.030685
540.000000, 86.299202
541.000000, 86.625153
542.000000, 86.806618
543.000000, 86.842514
544.000000, 86.555473
545.000000, 85.926643
546.000000, 85.220093
547.000000, 84.389503
548.000000, 83.660995
549.000000, 83.148109
550.000000, 82.910210
551.000000, 83.004807
552.000000, 83.406082
553.000000, 84.116096
554.000000, 84.940880
555.000000, 85.790695
556.000000, 86.490074
557.000000, 86.980583
558.000000, 87.274780
559.000000, 87.288719
560.000000, 87.156113
561.000000, 86.884727
562.000000, 86.725822
563.000000, 86.641190
564.000000, 86.646965
565.000000, 86.753426
566.000000, 86.997307
567.000000, 87.275047
568.000000, 87.489021
569.000000, 87.492683
570.000000, 87.253784
571.000000, 86.879532
572.000000, 86.295975
573.000000, 85.613411
574.000000, 84.981224
575.000000, 84.402184
576.000000, 84.059875
577.000000, 83.949112
578.000000, 84.083832
579.000000, 84.458153
580.000000, 84.983994
581.000000, 85.569420
582.000000, 86.093124
583.000000, 86.526886
584.000000, 86.764458
585.000000, 86.808601
586.000000, 86.757843
587.000000, 86.606400
588.000000, 86.497108
589.000000, 86.388138
590.000000, 86.096664
591.000000, 85.517639
592.000000, 84.390419
593.000000, 82.842674
594.000000, 81.394379
595.000000, 80.796417
596.000000, 81.065163
597.000000, 79.036682
598.000000, 68.329025
599.000000, 47.422634
600.000000, 25.484249
601.000000, 9.740453
602.000000, 4.559944
603.000000, 1.945865
604.000000, 0.873841
605.000000, 0.422644
606.000000, 0.215081
607.000000, 0.114614
608.000000, 0.063780
609.000000, 0.036717
610.000000, 0.021935
611.000000, 0.013632
612.000000, 0.008740
613.000000, 0.005767
614.000000, 0.003916
615.000000, 0.002742
616.000000, 0.002002
617.000000, 0.001501
618.000000, 0.001177
619.000000, 0.000916
620.000000, 0.000744
621.000000, 0.000625
622.000000, 0.000523
623.000000, 0.000459
624.000000, 0.000387
625.000000, 0.000345
626.000000, 0.000301
627.000000, 0.000264
628.000000, 0.000253
629.000000, 0.000227
630.000000, 0.000202
631.000000, 0.000194
632.000000, 0.000172
633.000000, 0.000162
634.000000, 0.000154
635.000000, 0.000144
636.000000, 0.000128
637.000000, 0.000109
638.000000, 0.000117
639.000000, 0.000106
640.000000, 0.000101
641.000000, 0.000094
642.000000, 0.000088
643.000000, 0.000079
644.000000, 0.000074
645.000000, 0.000074
646.000000, 0.000078
647.000000, 0.000072
648.000000, 0.000060
649.000000, 0.000068
650.000000, 0.000060
651.000000, 0.000063
652.000000, 0.000060
653.000000, 0.000056
654.000000, 0.000053
655.000000, 0.000051
656.000000, 0.000046
657.000000, 0.000052
658.000000, 0.000038
659.000000, 0.000046
660.000000, 0.000044
661.000000, 0.000041
662.000000, 0.000047
663.000000, 0.000045
664.000000, 0.000040
665.000000, 0.000040
666.000000, 0.000045
667.000000, 0.000039
668.000000, 0.000037
669.000000, 0.000047
670.000000, 0.000036
671.000000, 0.000037
672.000000, 0.000038
673.000000, 0.000042
674.000000, 0.000038
675.000000, 0.000033
676.000000, 0.000035
677.000000, 0.000043
678.000000, 0.000037
679.000000, 0.000033
680.000000, 0.000049
681.000000, 0.000034
682.000000, 0.000034
683.000000, 0.000043
684.000000, 0.000025
685.000000, 0.000031
686.000000, 0.000030
687.000000, 0.000046
688.000000, 0.000034
689.000000, 0.000038
690.000000, 0.000050
691.000000, 0.000033
692.000000, 0.000033
693.000000, 0.000045
694.000000, 0.000041
695.000000, 0.000036
696.000000, 0.000047
697.000000, 0.000030
698.000000, 0.000037
699.000000, 0.000034
700.000000, 0.000044
701.000000, 0.000037
702.000000, 0.000036
703.000000, 0.000044
704.000000, 0.000034
705.000000, 0.000035
706.000000, 0.000042
707.000000, 0.000053
708.000000, 0.000034
709.000000, 0.000034
710.000000, 0.000040
711.000000, 0.000050
712.000000, 0.000044
713.000000, 0.000036
714.000000, 0.000036
715.000000, 0.000052
716.000000, 0.000037
717.000000, 0.000038
718.000000, 0.000050
719.000000, 0.000038
720.000000, 0.000033
721.000000, 0.000035
722.000000, 0.000038
723.000000, 0.000050
724.000000, 0.000037
725.000000, 0.000038
726.000000, 0.000043
727.000000, 0.000046
728.000000, 0.000040
729.000000, 0.000034
730.000000, 0.000041
731.000000, 0.000047
732.000000, 0.000054
733.000000, 0.000041
734.000000, 0.000037
735.000000, 0.000044
736.000000, 0.000053
737.000000, 0.000040
738.000000, 0.000042
739.000000, 0.000034
740.000000, 0.000046
741.000000, 0.000057
742.000000, 0.000046
743.000000, 0.000048
744.000000, 0.000039
745.000000, 0.000046
746.000000, 0.000047
747.000000, 0.000046
748.000000, 0.000047
749.000000, 0.000046
750.000000, 0.000060
751.000000, 0.000054
752.000000, 0.000049
753.000000, 0.000038
754.000000, 0.000062
755.000000, 0.000051
756.000000, 0.000042
757.000000, 0.000044
758.000000, 0.000047
759.000000, 0.000062
760.000000, 0.000047
761.000000, 0.000052
762.000000, 0.000043
763.000000, 0.000060
764.000000, 0.000049
765.000000, 0.000057
766.000000, 0.000046
767.000000, 0.000044
768.000000, 0.000050
769.000000, 0.000057
770.000000, 0.000058
771.000000, 0.000055
772.000000, 0.000047
773.000000, 0.000058
774.000000, 0.000044
775.000000, 0.000048
776.000000, 0.000050
777.000000, 0.000051
778.000000, 0.000066
779.000000, 0.000059
780.000000, 0.000050
781.000000, 0.000041
782.000000, 0.000049
783.000000, 0.000075
784.000000, 0.000054
785.000000, 0.000059
786.000000, 0.000058
787.000000, 0.000065
788.000000, 0.000067
789.000000, 0.000058
790.000000, 0.000055
791.000000, 0.000065
792.000000, 0.000053
793.000000, 0.000073
794.000000, 0.000052
795.000000, 0.000057
796.000000, 0.000059
797.000000, 0.000061
798.000000, 0.000068
799.000000, 0.000053
800.000000, 0.000058
801.000000, 0.000592
802.000000, 0.000567
803.000000, -0.000248
804.000000, 0.000251
805.000000, 0.000541
806.000000, 0.000296
807.000000, 0.000475
808.000000, 0.000368
809.000000, 0.000124
810.000000, 0.000569
811.000000, 0.000509
812.000000, 0.000932
813.000000, 0.000181
814.000000, 0.000765
815.000000, 0.000963
816.000000, 0.001121
817.000000, 0.001373
818.000000, 0.001278
819.000000, 0.001610
820.000000, 0.002231
821.000000, 0.002456
822.000000, 0.003472
823.000000, 0.005520
824.000000, 0.013144
825.000000, 0.039282
826.000000, 0.112638
827.000000, 0.241923
828.000000, 0.405413
829.000000, 0.582935
830.000000, 0.778102
831.000000, 0.973354
832.000000, 1.160680
833.000000, 1.358236
834.000000, 1.552433
835.000000, 1.757293
836.000000, 1.990826
837.000000, 2.291060
838.000000, 2.685150
839.000000, 3.198922
840.000000, 3.797283
841.000000, 4.399222
842.000000, 5.040664
843.000000, 5.671201
844.000000, 6.245581
845.000000, 6.753333
846.000000, 7.197336
847.000000, 7.781238
848.000000, 8.467784
849.000000, 9.113764
850.000000, 9.752187
851.000000, 10.377928
852.000000, 11.014439
853.000000, 11.604698
854.000000, 12.135984
855.000000, 12.447764
856.000000, 12.353871
857.000000, 11.696452
858.000000, 10.677493
859.000000, 9.640846
860.000000, 8.707302
861.000000, 7.844627
862.000000, 7.100643
863.000000, 6.491214
864.000000, 6.020702
865.000000, 5.685087
866.000000, 5.526238
867.000000, 5.499172
868.000000, 5.568900
869.000000, 5.711847
870.000000, 5.897743
871.000000, 6.134002
872.000000, 6.406730
873.000000, 6.728991
874.000000, 7.407701
875.000000, 8.340014
876.000000, 9.412418
877.000000, 10.663238
878.000000, 12.238095
879.000000, 14.039375
880.000000, 16.397482
881.000000, 19.395065
882.000000, 22.810577
883.000000, 26.377932
884.000000, 28.977411
885.000000, 29.429453
886.000000, 27.461512
887.000000, 24.175491
888.000000, 20.677031
889.000000, 17.663607
890.000000, 15.020516
891.000000, 12.880061
892.000000, 11.114055
893.000000, 9.659160
894.000000, 8.424110
895.000000, 7.462054
896.000000, 6.690154
897.000000, 6.049732
898.000000, 5.583807
899.000000, 5.210539
900.000000, 4.968041
901.000000, 4.934861
902.000000, 5.079334
903.000000, 5.355479
904.000000, 5.750410
905.000000, 6.227975
906.000000, 6.862524
907.000000, 7.665936
908.000000, 8.618979
909.000000, 9.839535
910.000000, 11.337936
911.000000, 13.236178
912.000000, 15.731098
913.000000, 19.095345
914.000000, 23.376211
915.000000, 29.153109
916.000000, 36.362804
917.000000, 44.580345
918.000000, 52.621281
919.000000, 57.799656
920.000000, 57.758583
921.000000, 53.070568
922.000000, 46.016258
923.000000, 38.529312
924.000000, 32.162518
925.000000, 26.609352
926.000000, 22.195396
927.000000, 18.964575
928.000000, 16.395311
929.000000, 14.459364
930.000000, 12.988098
931.000000, 11.849007
932.000000, 10.972204
933.000000, 10.369173
934.000000, 9.946783
935.000000, 9.664885
936.000000, 9.534968
937.000000, 9.520786
938.000000, 9.623656
939.000000, 9.846611
940.000000, 10.178231
941.000000, 10.641515
942.000000, 11.258520
943.000000, 11.997134
944.000000, 12.966365
945.000000, 14.181134
946.000000, 15.606441
947.000000, 17.418621
948.000000, 19.603872
949.000000, 22.231821
950.000000, 25.539568
951.000000, 29.753521
952.000000, 34.750713
953.000000, 40.741714
954.000000, 47.818924
955.000000, 55.659496
956.000000, 63.690537
957.000000, 71.051590
958.000000, 76.359894
959.000000, 78.126877
960.000000, 76.481743
961.000000, 71.874794
962.000000, 65.886116
963.000000, 58.855946
964.000000, 52.022606
965.000000, 46.177979
966.000000, 41.066681
967.000000, 36.740398
968.000000, 33.225807
969.000000, 30.236145
970.000000, 27.786995
971.000000, 25.826651
972.000000, 24.253654
973.000000, 23.007660
974.000000, 22.051977
975.000000, 21.313168
976.000000, 20.754824
977.000000, 20.407669
978.000000, 20.225555
979.000000, 20.208832
980.000000, 20.379190
981.000000, 20.693228
982.000000, 21.153944
983.000000, 21.834690
984.000000, 22.670837
985.000000, 23.731834
986.000000, 24.926962
987.000000, 26.343113
988.000000, 28.042496
989.000000, 30.164803
990.000000, 32.483471
991.000000, 35.279770
992.000000, 38.501240
993.000000, 42.108765
994.000000, 46.254833
995.000000, 51.010807
996.000000, 56.247044
997.000000, 61.808849
998.000000, 67.593094
999.000000, 73.364105
1000.000000, 78.527161
1001.000000, 83.070297
1002.000000, 86.498428
1003.000000, 88.097641
1004.000000, 88.117912
1005.000000, 86.707443
1006.000000, 83.750404
1007.000000, 80.076927
1008.000000, 75.614586
1009.000000, 70.872131
1010.000000, 66.307526
1011.000000, 61.907555
1012.000000, 57.949459
1013.000000, 54.340904
1014.000000, 51.006805
1015.000000, 48.165752
1016.000000, 45.685863
1017.000000, 43.558578
1018.000000, 41.750088
1019.000000, 40.299828
1020.000000, 39.007977
1021.000000, 38.019981
1022.000000, 37.283825
1023.000000, 36.735935
1024.000000, 36.373447
1025.000000, 36.223206
1026.000000, 36.283569
1027.000000, 36.500313
1028.000000, 36.941772
1029.000000, 37.528862
1030.000000, 38.335564
1031.000000, 39.301239
1032.000000, 40.473167
1033.000000, 41.841572
1034.000000, 43.536034
1035.000000, 45.389114
1036.000000, 47.506580
1037.000000, 49.884190
1038.000000, 52.437485
1039.000000, 55.312950
1040.000000, 58.523010
1041.000000, 61.901295
1042.000000, 65.534744
1043.000000, 69.198700
1044.000000, 72.960823
1045.000000, 76.633659
1046.000000, 80.371689
1047.000000, 83.743736
1048.000000, 86.598465
1049.000000, 88.698486
1050.000000, 90.278175
1051.000000, 91.032974
1052.000000, 90.915085
1053.000000, 89.984726
1054.000000, 88.313805
1055.000000, 86.072571
1056.000000, 83.333992
1057.000000, 80.283310
1058.000000, 77.023476
1059.000000, 73.577431
1060.000000, 70.301460
1061.000000, 67.020393
1062.000000, 64.047165
1063.000000, 61.112732
1064.000000, 58.502632
1065.000000, 55.990017
1066.000000, 53.752254
1067.000000, 51.662796
1068.000000, 49.866600
1069.000000, 48.354237
1070.000000, 46.956242
1071.000000, 45.726292
1072.000000, 44.678066
1073.000000, 43.784359
1074.000000, 43.037144
1075.000000, 42.492695
1076.000000, 42.064022
1077.000000, 41.827885
1078.000000, 41.628658
1079.000000, 41.609577
1080.000000, 41.693047
1081.000000, 41.918133
1082.000000, 42.266674
1083.000000, 42.729073
1084.000000, 43.349476
