# Wavelength  (nm), Transmission (%)
200.000000, 0.003844
201.000000, 0.003712
202.000000, 0.003683
203.000000, 0.003572
204.000000, 0.003442
205.000000, 0.003326
206.000000, 0.003255
207.000000, 0.003172
208.000000, 0.003086
209.000000, 0.003008
210.000000, 0.002944
211.000000, 0.002842
212.000000, 0.002792
213.000000, 0.002757
214.000000, 0.002702
215.000000, 0.002677
216.000000, 0.002653
217.000000, 0.002640
218.000000, 0.002656
219.000000, 0.002662
220.000000, 0.002674
221.000000, 0.002675
222.000000, 0.002722
223.000000, 0.002780
224.000000, 0.002815
225.000000, 0.002821
226.000000, 0.002860
227.000000, 0.002874
228.000000, 0.002878
229.000000, 0.002953
230.000000, 0.002925
231.000000, 0.002955
232.000000, 0.002953
233.000000, 0.002922
234.000000, 0.002924
235.000000, 0.002900
236.000000, 0.002862
237.000000, 0.002847
238.000000, 0.002788
239.000000, 0.002773
240.000000, 0.002745
241.000000, 0.002669
242.000000, 0.002606
243.000000, 0.002601
244.000000, 0.002546
245.000000, 0.002494
246.000000, 0.002471
247.000000, 0.002413
248.000000, 0.002380
249.000000, 0.002352
250.000000, 0.002323
251.000000, 0.002258
252.000000, 0.002216
253.000000, 0.002213
254.000000, 0.002183
255.000000, 0.002153
256.000000, 0.002103
257.000000, 0.002085
258.000000, 0.002032
259.000000, 0.002013
260.000000, 0.001992
261.000000, 0.001983
262.000000, 0.001944
263.000000, 0.001945
264.000000, 0.001937
265.000000, 0.001899
266.000000, 0.001883
267.000000, 0.001877
268.000000, 0.001808
269.000000, 0.001864
270.000000, 0.001877
271.000000, 0.001834
272.000000, 0.001841
273.000000, 0.001836
274.000000, 0.001835
275.000000, 0.001839
276.000000, 0.001864
277.000000, 0.001837
278.000000, 0.001841
279.000000, 0.001843
280.000000, 0.001883
281.000000, 0.001858
282.000000, 0.001849
283.000000, 0.001862
284.000000, 0.001854
285.000000, 0.001868
286.000000, 0.001843
287.000000, 0.001846
288.000000, 0.001794
289.000000, 0.001776
290.000000, 0.001744
291.000000, 0.001731
292.000000, 0.001677
293.000000, 0.001640
294.000000, 0.001591
295.000000, 0.001554
296.000000, 0.001500
297.000000, 0.001430
298.000000, 0.001364
299.000000, 0.001333
300.000000, 0.001216
301.000000, 0.001186
302.000000, 0.001107
303.000000, 0.001056
304.000000, 0.000995
305.000000, 0.000913
306.000000, 0.000862
307.000000, 0.000802
308.000000, 0.000721
309.000000, 0.000686
310.000000, 0.000602
311.000000, 0.000584
312.000000, 0.000529
313.000000, 0.000493
314.000000, 0.000441
315.000000, 0.000440
316.000000, 0.000380
317.000000, 0.000349
318.000000, 0.000303
319.000000, 0.000292
320.000000, 0.000296
321.000000, 0.000241
322.000000, 0.000231
323.000000, 0.000213
324.000000, 0.000200
325.000000, 0.000193
326.000000, 0.000165
327.000000, 0.000170
328.000000, 0.000138
329.000000, 0.000136
330.000000, 0.000135
331.000000, 0.000141
332.000000, 0.000135
333.000000, 0.000099
334.000000, 0.000115
335.000000, 0.000097
336.000000, 0.000087
337.000000, 0.000079
338.000000, 0.000099
339.000000, 0.000080
340.000000, 0.000078
341.000000, 0.000099
342.000000, 0.000082
343.000000, 0.000082
344.000000, 0.000077
345.000000, 0.000084
346.000000, 0.000084
347.000000, 0.000084
348.000000, 0.000080
349.000000, -0.000035
350.000000, 0.000099
351.000000, 0.000153
352.000000, 0.000200
353.000000, 0.000280
354.000000, 0.000500
355.000000, 0.000835
356.000000, 0.001515
357.000000, 0.002676
358.000000, 0.004805
359.000000, 0.008598
360.000000, 0.014886
361.000000, 0.025462
362.000000, 0.042267
363.000000, 0.069221
364.000000, 0.110934
365.000000, 0.173347
366.000000, 0.264787
367.000000, 0.394718
368.000000, 0.576607
369.000000, 0.827725
370.000000, 1.163194
371.000000, 1.602325
372.000000, 2.136016
373.000000, 2.784219
374.000000, 3.602386
375.000000, 4.637566
376.000000, 5.884727
377.000000, 7.266378
378.000000, 8.739699
379.000000, 10.416862
380.000000, 12.394107
381.000000, 14.680357
382.000000, 17.014971
383.000000, 19.096239
384.000000, 20.998167
385.000000, 23.082743
386.000000, 25.559319
387.000000, 28.454062
388.000000, 31.254730
389.000000, 33.574219
390.000000, 35.437263
391.000000, 37.289791
392.000000, 39.617027
393.000000, 42.422169
394.000000, 45.346867
395.000000, 47.876202
396.000000, 49.752647
397.000000, 51.218502
398.000000, 52.607632
399.000000, 54.178776
400.000000, 55.979122
401.000000, 57.777245
402.000000, 59.315128
403.000000, 60.561077
404.000000, 61.639221
405.000000, 62.711472
406.000000, 63.829632
407.000000, 65.022324
408.000000, 66.277374
409.000000, 67.468544
410.000000, 68.657051
411.000000, 69.616142
412.000000, 70.394882
413.000000, 71.023026
414.000000, 71.452003
415.000000, 71.747505
416.000000, 72.236389
417.000000, 72.781433
418.000000, 73.493408
419.000000, 74.220154
420.000000, 74.831810
421.000000, 75.188492
422.000000, 75.334641
423.000000, 75.322952
424.000000, 75.342171
425.000000, 75.542847
426.000000, 75.958305
427.000000, 76.594261
428.000000, 77.162132
429.000000, 77.599541
430.000000, 77.739876
431.000000, 77.702530
432.000000, 77.561646
433.000000, 77.557465
434.000000, 77.762802
435.000000, 78.166885
436.000000, 78.622261
437.000000, 79.061501
438.000000, 79.258743
439.000000, 79.196732
440.000000, 78.976288
441.000000, 78.695877
442.000000, 78.577042
443.000000, 78.657066
444.000000, 78.993355
445.000000, 79.458748
446.000000, 79.816017
447.000000, 79.961189
448.000000, 79.909660
449.000000, 79.637596
450.000000, 79.347214
451.000000, 79.144844
452.000000, 79.107002
453.000000, 79.321426
454.000000, 79.656044
455.000000, 80.032829
456.000000, 80.349770
457.000000, 80.468628
458.000000, 80.391426
459.000000, 80.209778
460.000000, 80.067200
461.000000, 80.007576
462.000000, 80.069687
463.000000, 80.157684
464.000000, 80.320480
465.000000, 80.466705
466.000000, 80.485031
467.000000, 80.430153
468.000000, 80.317101
469.000000, 80.173813
470.000000, 80.132256
471.000000, 80.119568
472.000000, 80.161591
473.000000, 80.171265
474.000000, 80.099503
475.000000, 79.970482
476.000000, 79.749184
477.000000, 79.521706
478.000000, 79.351685
479.000000, 79.277123
480.000000, 79.207352
481.000000, 79.217056
482.000000, 79.184898
483.000000, 78.997269
484.000000, 78.761223
485.000000, 78.493271
486.000000, 78.167717
487.000000, 77.909157
488.000000, 77.697678
489.000000, 77.500473
490.000000, 77.254829
491.000000, 76.894226
492.000000, 76.378555
493.000000, 75.589294
494.000000, 74.492111
495.000000, 73.178696
496.000000, 71.480644
497.000000, 67.916260
498.000000, 58.624352
499.000000, 41.637699
500.000000, 22.431440
501.000000, 6.472687
502.000000, 3.231997
503.000000, 1.132220
504.000000, 0.434994
505.000000, 0.181644
506.000000, 0.083944
507.000000, 0.042523
508.000000, 0.023573
509.000000, 0.014345
510.000000, 0.009367
511.000000, 0.006570
512.000000, 0.004887
513.000000, 0.003779
514.000000, 0.003040
515.000000, 0.002492
516.000000, 0.002079
517.000000, 0.001799
518.000000, 0.001528
519.000000, 0.001335
520.000000, 0.001159
521.000000, 0.001022
522.000000, 0.000917
523.000000, 0.000807
524.000000, 0.000713
525.000000, 0.000649
526.000000, 0.000579
527.000000, 0.000521
528.000000, 0.000464
529.000000, 0.000433
530.000000, 0.000393
531.000000, 0.000347
532.000000, 0.000321
533.000000, 0.000289
534.000000, 0.000269
535.000000, 0.000243
536.000000, 0.000220
537.000000, 0.000205
538.000000, 0.000194
539.000000, 0.000173
540.000000, 0.000169
541.000000, 0.000156
542.000000, 0.000146
543.000000, 0.000143
544.000000, 0.000126
545.000000, 0.000115
546.000000, 0.000111
547.000000, 0.000102
548.000000, 0.000098
549.000000, 0.000089
550.000000, 0.000079
551.000000, 0.000076
552.000000, 0.000077
553.000000, 0.000072
554.000000, 0.000066
555.000000, 0.000067
556.000000, 0.000058
557.000000, 0.000056
558.000000, 0.000056
559.000000, 0.000047
560.000000, 0.000044
561.000000, 0.000047
562.000000, 0.000046
563.000000, 0.000043
564.000000, 0.000043
565.000000, 0.000037
566.000000, 0.000041
567.000000, 0.000025
568.000000, 0.000034
569.000000, 0.000030
570.000000, 0.000031
571.000000, 0.000035
572.000000, 0.000017
573.000000, 0.000022
574.000000, 0.000032
575.000000, 0.000025
576.000000, 0.000027
577.000000, 0.000022
578.000000, 0.000014
579.000000, 0.000026
580.000000, 0.000019
581.000000, 0.000019
582.000000, 0.000027
583.000000, 0.000004
584.000000, 0.000015
585.000000, 0.000014
586.000000, 0.000011
587.000000, 0.000009
588.000000, 0.000021
589.000000, 0.000014
590.000000, 0.000005
591.000000, 0.000014
592.000000, 0.000009
593.000000, 0.000016
594.000000, 0.000009
595.000000, 0.000004
596.000000, 0.000015
597.000000, 0.000007
598.000000, 0.000012
599.000000, 0.000014
600.000000, -0.000000
601.000000, 0.000013
602.000000, 0.000003
603.000000, 0.000017
604.000000, 0.000005
605.000000, 0.000007
606.000000, 0.000013
607.000000, 0.000010
608.000000, 0.000011
609.000000, 0.000009
610.000000, 0.000012
611.000000, 0.000008
612.000000, 0.000013
613.000000, 0.000013
614.000000, 0.000014
615.000000, 0.000012
616.000000, 0.000008
617.000000, 0.000009
618.000000, 0.000017
619.000000, 0.000021
620.000000, 0.000010
621.000000, 0.000012
622.000000, 0.000008
623.000000, 0.000008
624.000000, 0.000009
625.000000, 0.000004
626.000000, 0.000012
627.000000, 0.000013
628.000000, 0.000013
629.000000, 0.000011
630.000000, 0.000009
631.000000, 0.000010
632.000000, 0.000010
633.000000, 0.000008
634.000000, 0.000007
635.000000, 0.000002
636.000000, 0.000013
637.000000, -0.000001
638.000000, 0.000001
639.000000, 0.000004
640.000000, 0.000005
641.000000, 0.000008
642.000000, 0.000010
643.000000, -0.000009
644.000000, 0.000002
645.000000, 0.000007
646.000000, 0.000009
647.000000, 0.000004
648.000000, 0.000002
649.000000, 0.000008
650.000000, 0.000003
651.000000, 0.000008
652.000000, 0.000009
653.000000, 0.000003
654.000000, 0.000010
655.000000, 0.000006
656.000000, 0.000007
657.000000, 0.000007
658.000000, 0.000003
659.000000, 0.000008
660.000000, 0.000010
661.000000, 0.000007
662.000000, 0.000015
663.000000, 0.000011
664.000000, 0.000006
665.000000, 0.000007
666.000000, 0.000008
667.000000, 0.000010
668.000000, -0.000003
669.000000, 0.000015
670.000000, 0.000013
671.000000, 0.000008
672.000000, 0.000009
673.000000, 0.000019
674.000000, 0.000004
675.000000, 0.000007
676.000000, 0.000007
677.000000, 0.000017
678.000000, 0.000009
679.000000, 0.000004
680.000000, 0.000027
681.000000, 0.000010
682.000000, 0.000019
683.000000, 0.000030
684.000000, 0.000020
685.000000, 0.000027
686.000000, 0.000033
687.000000, 0.000048
688.000000, 0.000059
689.000000, 0.000087
690.000000, 0.000130
691.000000, 0.000177
692.000000, 0.000271
693.000000, 0.000404
694.000000, 0.000624
695.000000, 0.001033
696.000000, 0.001752
697.000000, 0.003183
698.000000, 0.006444
699.000000, 0.015041
700.000000, 0.050664
701.000000, 0.471168
702.000000, 2.675300
703.000000, 4.413383
704.000000, 2.602016
705.000000, 0.514014
706.000000, 0.179100
707.000000, 0.134938
708.000000, 0.124768
709.000000, 0.129710
710.000000, 0.147111
711.000000, 0.180288
712.000000, 0.237525
713.000000, 0.338639
714.000000, 0.529566
715.000000, 0.958547
716.000000, 2.219647
717.000000, 7.586299
718.000000, 22.326168
719.000000, 33.044987
720.000000, 23.532999
721.000000, 6.704430
722.000000, 4.029905
723.000000, 2.577676
724.000000, 1.985499
725.000000, 1.719862
726.000000, 1.618319
727.000000, 1.629076
728.000000, 1.733775
729.000000, 1.944913
730.000000, 2.298538
731.000000, 2.868855
732.000000, 3.795195
733.000000, 5.412235
734.000000, 8.437625
735.000000, 14.613930
736.000000, 27.650843
737.000000, 48.591160
738.000000, 64.272308
739.000000, 58.263420
740.000000, 39.030514
741.000000, 23.407076
742.000000, 15.263228
743.000000, 11.117448
744.000000, 8.822105
745.000000, 7.518843
746.000000, 6.749300
747.000000, 6.357075
748.000000, 6.228006
749.000000, 6.328109
750.000000, 6.642026
751.000000, 7.201445
752.000000, 8.071782
753.000000, 9.362100
754.000000, 11.257326
755.000000, 14.018090
756.000000, 18.171667
757.000000, 24.545933
758.000000, 34.128059
759.000000, 47.929626
760.000000, 64.345512
761.000000, 77.169929
762.000000, 78.899460
763.000000, 69.154205
764.000000, 54.493206
765.000000, 41.553417
766.000000, 32.138996
767.000000, 25.659079
768.000000, 21.268078
769.000000, 18.257421
770.000000, 16.228142
771.000000, 14.875414
772.000000, 13.979994
773.000000, 13.465887
774.000000, 13.281776
775.000000, 13.408627
776.000000, 13.824397
777.000000, 14.541138
778.000000, 15.579480
779.000000, 17.033068
780.000000, 18.986893
781.000000, 21.610825
782.000000, 25.124079
783.000000, 29.772381
784.000000, 35.908909
785.000000, 43.715080
786.000000, 53.172363
787.000000, 64.177696
788.000000, 74.940712
789.000000, 83.012375
790.000000, 85.865219
791.000000, 82.715446
792.000000, 75.086723
793.000000, 65.491867
794.000000, 56.195335
795.000000, 48.168045
796.000000, 41.592209
797.000000, 36.407455
798.000000, 32.481071
799.000000, 29.448423
800.000000, 34.217854
801.000000, 32.591907
802.000000, 31.254696
803.000000, 30.322487
804.000000, 29.708395
805.000000, 29.462498
806.000000, 29.688124
807.000000, 30.325695
808.000000, 31.402340
809.000000, 32.917320
810.000000, 34.813519
811.000000, 37.193916
812.000000, 40.003784
813.000000, 43.166405
814.000000, 46.877968
815.000000, 50.859619
816.000000, 55.301018
817.000000, 60.021072
818.000000, 64.756165
819.000000, 69.076622
820.000000, 72.739258
821.000000, 75.853508
822.000000, 77.620155
823.000000, 77.875145
824.000000, 76.704643
825.000000, 74.323044
826.000000, 70.840050
827.000000, 66.886398
828.000000, 62.583168
829.000000, 58.390762
830.000000, 54.214989
831.000000, 50.345051
832.000000, 47.003948
833.000000, 43.991928
834.000000, 41.462292
835.000000, 39.407475
836.000000, 37.632351
837.000000, 36.286251
838.000000, 35.302258
839.000000, 34.707527
840.000000, 34.457111
841.000000, 34.538277
842.000000, 34.929050
843.000000, 35.652176
844.000000, 36.658905
845.000000, 37.998123
846.000000, 39.682491
847.000000, 41.667404
848.000000, 43.980835
849.000000, 46.727951
850.000000, 49.907936
851.000000, 53.388256
852.000000, 57.221390
853.000000, 61.393826
854.000000, 65.935722
855.000000, 70.564972
856.000000, 75.104736
857.000000, 79.247528
858.000000, 82.776817
859.000000, 85.454842
860.000000, 86.951271
861.000000, 87.465591
862.000000, 86.487457
863.000000, 84.473770
864.000000, 81.628624
865.000000, 78.201103
866.000000, 74.397919
867.000000, 70.584663
868.000000, 66.479073
869.000000, 62.675858
870.000000, 59.180908
871.000000, 56.011177
872.000000, 53.224564
873.000000, 50.845440
874.000000, 48.735912
875.000000, 46.868618
876.000000, 45.406883
877.000000, 44.221642
878.000000, 43.370193
879.000000, 42.739384
880.000000, 42.379074
881.000000, 42.330967
882.000000, 42.449821
883.000000, 42.851501
884.000000, 43.447556
885.000000, 44.351200
886.000000, 45.411060
887.000000, 46.808655
888.000000, 48.485039
889.000000, 50.316101
890.000000, 52.488094
891.000000, 54.915092
892.000000, 57.575409
893.000000, 60.528595
894.000000, 63.725311
895.000000, 67.091881
896.000000, 70.524269
897.000000, 74.167297
898.000000, 77.592720
899.000000, 80.944992
900.000000, 84.041039
901.000000, 86.634567
902.000000, 88.660759
903.000000, 89.948914
904.000000, 90.673386
905.000000, 90.620605
906.000000, 89.759109
907.000000, 88.357170
908.000000, 86.420860
909.000000, 83.990997
910.000000, 81.330338
911.000000, 78.463913
912.000000, 75.562080
913.000000, 72.439865
914.000000, 69.596931
915.000000, 66.919693
916.000000, 64.395226
917.000000, 62.090767
918.000000, 59.936226
919.000000, 58.069099
920.000000, 56.364506
921.000000, 55.013489
922.000000, 53.874336
923.000000, 52.847660
924.000000, 52.179588
925.000000, 51.570206
926.000000, 51.212639
927.000000, 51.032848
928.000000, 51.007961
929.000000, 51.250088
930.000000, 51.596569
931.000000, 52.172256
932.000000, 52.899338
933.000000, 53.845364
934.000000, 54.977638
935.000000, 56.216358
936.000000, 57.635773
937.000000, 59.242409
938.000000, 61.094303
939.000000, 63.079071
940.000000, 65.165527
941.000000, 67.424355
942.000000, 69.898346
943.000000, 72.309845
944.000000, 74.859497
945.000000, 77.412971
946.000000, 79.953796
947.000000, 82.469765
948.000000, 84.695831
949.000000, 86.661888
950.000000, 88.462570
951.000000, 90.028069
952.000000, 91.096321
953.000000, 91.686920
954.000000, 92.016754
955.000000, 91.874023
956.000000, 91.042671
957.000000, 90.113701
958.000000, 88.799324
959.000000, 87.278648
960.000000, 85.404411
961.000000, 83.396843
962.000000, 81.464172
963.000000, 79.257767
964.000000, 77.091011
965.000000, 74.997353
966.000000, 73.108101
967.000000, 71.120285
968.000000, 69.380188
969.000000, 67.634468
970.000000, 66.108788
971.000000, 64.637077
972.000000, 63.339352
973.000000, 62.267666
974.000000, 61.304928
975.000000, 60.514648
976.000000, 59.767509
977.000000, 59.265316
978.000000, 58.816116
979.000000, 58.519077
980.000000, 58.398964
981.000000, 58.442490
982.000000, 58.472450
983.000000, 58.749359
984.000000, 59.162731
985.000000, 59.759289
986.000000, 60.372562
987.000000, 61.085598
988.000000, 61.947292
989.000000, 63.086575
990.000000, 64.065689
991.000000, 65.337624
992.000000, 66.666290
993.000000, 68.026039
994.000000, 69.591751
995.000000, 71.150299
996.000000, 72.888374
997.000000, 74.645775
998.000000, 76.427612
999.000000, 78.117714
1000.000000, 79.904541
1001.000000, 81.728355
1002.000000, 83.544830
1003.000000, 84.965263
1004.000000, 86.635017
1005.000000, 88.192337
1006.000000, 89.171425
1007.000000, 90.344421
1008.000000, 91.283989
1009.000000, 91.690804
1010.000000, 92.098358
1011.000000, 92.162415
1012.000000, 91.948250
1013.000000, 91.507622
1014.000000, 90.904327
1015.000000, 90.265755
1016.000000, 89.205017
1017.000000, 88.081169
1018.000000, 86.783844
1019.000000, 85.513527
1020.000000, 84.053810
1021.000000, 82.612404
1022.000000, 81.178963
1023.000000, 79.670486
1024.000000, 78.313530
1025.000000, 76.829056
1026.000000, 75.591133
1027.000000, 74.204651
1028.000000, 73.028397
1029.000000, 71.891342
1030.000000, 70.821213
1031.000000, 69.863441
1032.000000, 68.961311
1033.000000, 68.159981
1034.000000, 67.399338
1035.000000, 66.865112
1036.000000, 66.327942
1037.000000, 65.910690
1038.000000, 65.642487
1039.000000, 65.326515
1040.000000, 65.137497
1041.000000, 65.125046
1042.000000, 65.163315
1043.000000, 65.237999
1044.000000, 65.454109
1045.000000, 65.743172
1046.000000, 66.141273
1047.000000, 66.659546
1048.000000, 67.149582
1049.000000, 67.700485
1050.000000, 68.430939
1051.000000, 69.178391
1052.000000, 69.980423
1053.000000, 70.983276
1054.000000, 71.874794
1055.000000, 72.961967
1056.000000, 74.043289
1057.000000, 75.100311
1058.000000, 76.299011
1059.000000, 77.610741
1060.000000, 78.743484
1061.000000, 80.045723
1062.000000, 81.397652
1063.000000, 82.558151
1064.000000, 83.748466
1065.000000, 84.964714
1066.000000, 86.270157
1067.000000, 87.185852
1068.000000, 88.116089
1069.000000, 89.205246
1070.000000, 89.951965
1071.000000, 90.623413
1072.000000, 91.271210
1073.000000, 91.708954
1074.000000, 92.068855
1075.000000, 92.291016
1076.000000, 92.331802
1077.000000, 92.411819
1078.000000, 92.102699
1079.000000, 91.758339
1080.000000, 91.302521
1081.000000, 90.857780
