# Wavelength  (nm), Transmission (%)
200.000000, 0.004346
201.000000, 0.004270
202.000000, 0.004178
203.000000, 0.004104
204.000000, 0.004013
205.000000, 0.003931
206.000000, 0.003910
207.000000, 0.003784
208.000000, 0.003701
209.000000, 0.003612
210.000000, 0.003564
211.000000, 0.003471
212.000000, 0.003426
213.000000, 0.003371
214.000000, 0.003347
215.000000, 0.003309
216.000000, 0.003307
217.000000, 0.003272
218.000000, 0.003297
219.000000, 0.003281
220.000000, 0.003278
221.000000, 0.003309
222.000000, 0.003298
223.000000, 0.003310
224.000000, 0.003346
225.000000, 0.003331
226.000000, 0.003378
227.000000, 0.003351
228.000000, 0.003358
229.000000, 0.003382
230.000000, 0.003354
231.000000, 0.003349
232.000000, 0.003349
233.000000, 0.003318
234.000000, 0.003266
235.000000, 0.003243
236.000000, 0.003202
237.000000, 0.003177
238.000000, 0.003114
239.000000, 0.003090
240.000000, 0.003066
241.000000, 0.003026
242.000000, 0.002987
243.000000, 0.002927
244.000000, 0.002899
245.000000, 0.002869
246.000000, 0.002862
247.000000, 0.002785
248.000000, 0.002779
249.000000, 0.002719
250.000000, 0.002711
251.000000, 0.002679
252.000000, 0.002641
253.000000, 0.002624
254.000000, 0.002604
255.000000, 0.002585
256.000000, 0.002585
257.000000, 0.002555
258.000000, 0.002535
259.000000, 0.002519
260.000000, 0.002487
261.000000, 0.002466
262.000000, 0.002431
263.000000, 0.002415
264.000000, 0.002367
265.000000, 0.002366
266.000000, 0.002366
267.000000, 0.002321
268.000000, 0.002300
269.000000, 0.002262
270.000000, 0.002263
271.000000, 0.002261
272.000000, 0.002286
273.000000, 0.002243
274.000000, 0.002199
275.000000, 0.002204
276.000000, 0.002216
277.000000, 0.002208
278.000000, 0.002191
279.000000, 0.002194
280.000000, 0.002187
281.000000, 0.002154
282.000000, 0.002140
283.000000, 0.002111
284.000000, 0.002099
285.000000, 0.002094
286.000000, 0.002064
287.000000, 0.002050
288.000000, 0.002041
289.000000, 0.002044
290.000000, 0.002027
291.000000, 0.001948
292.000000, 0.001929
293.000000, 0.001894
294.000000, 0.001910
295.000000, 0.001803
296.000000, 0.001732
297.000000, 0.001712
298.000000, 0.001606
299.000000, 0.001575
300.000000, 0.001501
301.000000, 0.001471
302.000000, 0.001374
303.000000, 0.001314
304.000000, 0.001283
305.000000, 0.001154
306.000000, 0.001081
307.000000, 0.001004
308.000000, 0.000992
309.000000, 0.000876
310.000000, 0.000825
311.000000, 0.000781
312.000000, 0.000703
313.000000, 0.000658
314.000000, 0.000610
315.000000, 0.000546
316.000000, 0.000500
317.000000, 0.000466
318.000000, 0.000412
319.000000, 0.000389
320.000000, 0.000363
321.000000, 0.000313
322.000000, 0.000304
323.000000, 0.000252
324.000000, 0.000271
325.000000, 0.000215
326.000000, 0.000197
327.000000, 0.000198
328.000000, 0.000203
329.000000, 0.000160
330.000000, 0.000154
331.000000, 0.000141
332.000000, 0.000148
333.000000, 0.000135
334.000000, 0.000132
335.000000, 0.000121
336.000000, 0.000095
337.000000, 0.000099
338.000000, 0.000111
339.000000, 0.000083
340.000000, 0.000101
341.000000, 0.000074
342.000000, 0.000078
343.000000, 0.000077
344.000000, 0.000079
345.000000, 0.000067
346.000000, 0.000082
347.000000, 0.000059
348.000000, 0.000071
349.000000, -0.000072
350.000000, 0.000087
351.000000, 0.000102
352.000000, 0.000094
353.000000, 0.000077
354.000000, 0.000089
355.000000, 0.000066
356.000000, 0.000092
357.000000, 0.000086
358.000000, 0.000068
359.000000, 0.000088
360.000000, 0.000062
361.000000, 0.000085
362.000000, 0.000083
363.000000, 0.000057
364.000000, 0.000073
365.000000, 0.000067
366.000000, 0.000069
367.000000, 0.000052
368.000000, 0.000071
369.000000, 0.000072
370.000000, 0.000063
371.000000, 0.000058
372.000000, 0.000081
373.000000, 0.000064
374.000000, 0.000069
375.000000, 0.000071
376.000000, 0.000063
377.000000, 0.000058
378.000000, 0.000062
379.000000, 0.000071
380.000000, 0.000076
381.000000, 0.000089
382.000000, 0.000155
383.000000, 0.000481
384.000000, 0.002157
385.000000, 0.007582
386.000000, 0.025926
387.000000, 0.069690
388.000000, 0.143909
389.000000, 0.268287
390.000000, 0.395564
391.000000, 0.444644
392.000000, 0.593524
393.000000, 1.026775
394.000000, 1.369762
395.000000, 1.375911
396.000000, 1.954553
397.000000, 3.291576
398.000000, 3.816006
399.000000, 3.248973
400.000000, 4.157703
401.000000, 7.579470
402.000000, 9.687252
403.000000, 8.341805
404.000000, 8.932191
405.000000, 14.040357
406.000000, 16.723293
407.000000, 13.028375
408.000000, 10.110703
409.000000, 15.303842
410.000000, 24.105873
411.000000, 25.319027
412.000000, 19.164259
413.000000, 17.754118
414.000000, 26.909250
415.000000, 35.209934
416.000000, 31.165615
417.000000, 22.655928
418.000000, 23.782858
419.000000, 35.102676
420.000000, 41.579502
421.000000, 34.180389
422.000000, 23.981787
423.000000, 24.411850
424.000000, 36.290470
425.000000, 46.031498
426.000000, 40.400841
427.000000, 28.179428
428.000000, 24.461172
429.000000, 33.770306
430.000000, 48.066574
431.000000, 51.300449
432.000000, 40.519012
433.000000, 31.158039
434.000000, 34.237839
435.000000, 47.520512
436.000000, 56.616653
437.000000, 50.127823
438.000000, 37.008293
439.000000, 31.934515
440.000000, 39.202881
441.000000, 53.812622
442.000000, 62.344910
443.000000, 56.000019
444.000000, 44.780552
445.000000, 42.056320
446.000000, 50.838238
447.000000, 63.481457
448.000000, 66.983536
449.000000, 58.508373
450.000000, 49.218975
451.000000, 48.983356
452.000000, 57.727272
453.000000, 66.815506
454.000000, 66.238182
455.000000, 56.809444
456.000000, 48.714302
457.000000, 49.353966
458.000000, 58.670677
459.000000, 68.913239
460.000000, 69.452278
461.000000, 59.602135
462.000000, 49.714619
463.000000, 47.498371
464.000000, 54.197418
465.000000, 65.287949
466.000000, 71.128197
467.000000, 65.616066
468.000000, 54.527725
469.000000, 47.745167
470.000000, 49.064617
471.000000, 57.512260
472.000000, 67.900177
473.000000, 72.451721
474.000000, 68.373398
475.000000, 60.890343
476.000000, 55.934937
477.000000, 54.128147
478.000000, 52.489906
479.000000, 48.825409
480.000000, 44.114662
481.000000, 41.425140
482.000000, 42.690937
483.000000, 45.813557
484.000000, 44.490616
485.000000, 35.416431
486.000000, 23.229704
487.000000, 14.278655
488.000000, 9.738756
489.000000, 7.934424
490.000000, 7.696865
491.000000, 8.334642
492.000000, 8.831396
493.000000, 8.039227
494.000000, 5.958100
495.000000, 3.789799
496.000000, 2.336226
497.000000, 1.535659
498.000000, 1.114730
499.000000, 0.887214
500.000000, 0.760539
501.000000, 0.694734
502.000000, 0.668682
503.000000, 0.672250
504.000000, 0.702692
505.000000, 0.763343
506.000000, 0.862914
507.000000, 1.026070
508.000000, 1.303160
509.000000, 1.838346
510.000000, 3.145957
511.000000, 8.228774
512.000000, 22.167728
513.000000, 32.901585
514.000000, 23.744553
515.000000, 6.498776
516.000000, 2.323838
517.000000, 1.040362
518.000000, 0.597467
519.000000, 0.399090
520.000000, 0.296077
521.000000, 0.239190
522.000000, 0.207997
523.000000, 0.193661
524.000000, 0.193040
525.000000, 0.205253
526.000000, 0.234462
527.000000, 0.288044
528.000000, 0.384330
529.000000, 0.569269
530.000000, 0.962760
531.000000, 1.981966
532.000000, 5.361379
533.000000, 14.685891
534.000000, 25.471766
535.000000, 26.016483
536.000000, 17.479307
537.000000, 10.777186
538.000000, 8.738836
539.000000, 9.079085
540.000000, 11.412833
541.000000, 16.868370
542.000000, 28.048697
543.000000, 46.518551
544.000000, 65.960655
545.000000, 73.563309
546.000000, 66.928932
547.000000, 56.218021
548.000000, 49.375084
549.000000, 46.986080
550.000000, 47.271317
551.000000, 48.502201
552.000000, 49.591892
553.000000, 50.192673
554.000000, 50.872593
555.000000, 52.618568
556.000000, 56.333439
557.000000, 62.311333
558.000000, 69.660400
559.000000, 75.826225
560.000000, 78.073181
561.000000, 75.345818
562.000000, 69.578690
563.000000, 63.798172
564.000000, 60.353832
565.000000, 60.208076
566.000000, 63.692825
567.000000, 70.263062
568.000000, 77.963341
569.000000, 82.916420
570.000000, 81.643829
571.000000, 74.452301
572.000000, 64.656219
573.000000, 55.762505
574.000000, 49.797390
575.000000, 47.182785
576.000000, 47.807457
577.000000, 51.585442
578.000000, 58.406033
579.000000, 67.029198
580.000000, 74.928795
581.000000, 78.626457
582.000000, 76.454002
583.000000, 69.925194
584.000000, 62.395947
585.000000, 56.425564
586.000000, 53.157295
587.000000, 52.824097
588.000000, 55.455727
589.000000, 60.733921
590.000000, 67.711479
591.000000, 74.496025
592.000000, 78.117767
593.000000, 76.721085
594.000000, 70.909050
595.000000, 63.223381
596.000000, 56.140224
597.000000, 51.057846
598.000000, 48.420166
599.000000, 48.156307
600.000000, 50.181190
601.000000, 54.298447
602.000000, 60.119896
603.000000, 66.643738
604.000000, 72.355095
605.000000, 75.464508
606.000000, 75.244011
607.000000, 72.068115
608.000000, 67.622437
609.000000, 63.410156
610.000000, 60.517365
611.000000, 59.355141
612.000000, 60.022438
613.000000, 62.344955
614.000000, 65.995064
615.000000, 70.310173
616.000000, 74.264923
617.000000, 76.746536
618.000000, 77.118103
619.000000, 75.403358
620.000000, 72.316780
621.000000, 68.988129
622.000000, 66.246880
623.000000, 64.568855
624.000000, 64.214066
625.000000, 65.167938
626.000000, 67.204872
627.000000, 70.036751
628.000000, 73.135773
629.000000, 75.825485
630.000000, 77.524391
631.000000, 77.956100
632.000000, 77.141556
633.000000, 75.544426
634.000000, 73.739220
635.000000, 72.208794
636.000000, 71.365013
637.000000, 71.353775
638.000000, 72.208153
639.000000, 73.779968
640.000000, 75.749100
641.000000, 77.794563
642.000000, 79.388451
643.000000, 80.179474
644.000000, 80.010849
645.000000, 78.900925
646.000000, 77.234985
647.000000, 75.361473
648.000000, 73.690491
649.000000, 72.529419
650.000000, 71.996758
651.000000, 72.257629
652.000000, 73.189087
653.000000, 74.742081
654.000000, 76.720642
655.000000, 78.795967
656.000000, 80.746284
657.000000, 82.274109
658.000000, 83.210358
659.000000, 83.473930
660.000000, 83.139305
661.000000, 82.416603
662.000000, 81.549400
663.000000, 80.735825
664.000000, 80.179527
665.000000, 79.910362
666.000000, 79.959991
667.000000, 80.320366
668.000000, 80.923912
669.000000, 81.575005
670.000000, 82.209007
671.000000, 82.752159
672.000000, 83.168030
673.000000, 83.357010
674.000000, 83.413330
675.000000, 83.381393
676.000000, 83.336533
677.000000, 83.327461
678.000000, 83.420731
679.000000, 83.583153
680.000000, 83.875694
681.000000, 84.176926
682.000000, 84.490387
683.000000, 84.670189
684.000000, 84.768364
685.000000, 84.678856
686.000000, 84.521400
687.000000, 84.158760
688.000000, 83.796661
689.000000, 83.422379
690.000000, 83.140190
691.000000, 82.965637
692.000000, 82.993546
693.000000, 83.165512
694.000000, 83.458969
695.000000, 83.959709
696.000000, 84.484459
697.000000, 85.043777
698.000000, 85.510429
699.000000, 85.862747
700.000000, 86.032448
701.000000, 86.094215
702.000000, 86.016068
703.000000, 85.841438
704.000000, 85.575752
705.000000, 85.401665
706.000000, 85.274055
707.000000, 85.242424
708.000000, 85.382133
709.000000, 85.520531
710.000000, 85.834991
711.000000, 86.141640
712.000000, 86.477570
713.000000, 86.794128
714.000000, 86.977295
715.000000, 87.074203
716.000000, 87.075439
717.000000, 86.979568
718.000000, 86.711914
719.000000, 86.461349
720.000000, 86.214607
721.000000, 86.023178
722.000000, 85.808945
723.000000, 85.750252
724.000000, 85.711349
725.000000, 85.759666
726.000000, 85.795547
727.000000, 85.913330
728.000000, 85.979591
729.000000, 86.016777
730.000000, 85.986145
731.000000, 85.849937
732.000000, 85.642197
733.000000, 85.442940
734.000000, 85.244026
735.000000, 84.987976
736.000000, 84.867073
737.000000, 84.730484
738.000000, 84.758362
739.000000, 84.907021
740.000000, 85.160957
741.000000, 85.507355
742.000000, 85.946945
743.000000, 86.358192
744.000000, 86.831055
745.000000, 87.228844
746.000000, 87.572472
747.000000, 87.836655
748.000000, 87.913155
749.000000, 87.927505
750.000000, 87.801292
751.000000, 87.604485
752.000000, 87.473206
753.000000, 87.286766
754.000000, 87.193787
755.000000, 86.991577
756.000000, 86.980545
757.000000, 87.093353
758.000000, 87.153397
759.000000, 87.419495
760.000000, 87.601921
761.000000, 87.878082
762.000000, 88.062439
763.000000, 88.230209
764.000000, 88.442596
765.000000, 88.523468
766.000000, 88.477806
767.000000, 88.395752
768.000000, 88.312729
769.000000, 88.155678
770.000000, 88.000885
771.000000, 87.888695
772.000000, 87.761833
773.000000, 87.753197
774.000000, 87.801369
775.000000, 87.866524
776.000000, 88.005028
777.000000, 88.143364
778.000000, 88.312126
779.000000, 88.509979
780.000000, 88.639587
781.000000, 88.879120
782.000000, 88.978210
783.000000, 89.047867
784.000000, 89.168083
785.000000, 89.130951
786.000000, 89.157532
787.000000, 89.076263
788.000000, 89.003548
789.000000, 89.023659
790.000000, 89.061165
791.000000, 88.992622
792.000000, 88.981369
793.000000, 89.025986
794.000000, 89.006577
795.000000, 89.065735
796.000000, 89.070862
797.000000, 89.069023
798.000000, 89.148224
799.000000, 89.023666
800.000000, 89.987656
801.000000, 89.866364
802.000000, 89.759514
803.000000, 89.814461
804.000000, 89.926872
805.000000, 89.875122
806.000000, 89.868484
807.000000, 89.761665
808.000000, 89.704445
809.000000, 89.718536
810.000000, 89.820877
811.000000, 89.708481
812.000000, 89.702362
813.000000, 89.583168
814.000000, 89.646889
815.000000, 89.506760
816.000000, 89.572609
817.000000, 89.488327
818.000000, 89.343079
819.000000, 89.418587
820.000000, 89.221771
821.000000, 89.276497
822.000000, 89.323250
823.000000, 89.272285
824.000000, 89.410233
825.000000, 89.399231
826.000000, 89.205818
827.000000, 89.276993
828.000000, 89.242836
829.000000, 89.236450
830.000000, 89.205238
831.000000, 89.169495
832.000000, 89.082092
833.000000, 88.950562
834.000000, 88.816162
835.000000, 88.780418
836.000000, 88.561554
837.000000, 88.405281
838.000000, 88.116974
839.000000, 87.878448
840.000000, 87.620041
841.000000, 87.431625
842.000000, 86.999985
843.000000, 86.780861
844.000000, 86.230186
845.000000, 85.330154
846.000000, 83.386803
847.000000, 80.012306
848.000000, 74.762299
849.000000, 67.335335
850.000000, 58.603191
851.000000, 49.882450
852.000000, 41.442543
853.000000, 34.214329
854.000000, 28.296358
855.000000, 23.488478
856.000000, 19.506817
857.000000, 16.488977
858.000000, 14.028306
859.000000, 12.008934
860.000000, 10.445210
861.000000, 9.082911
862.000000, 7.900956
863.000000, 6.936725
864.000000, 6.117717
865.000000, 5.096629
866.000000, 3.996859
867.000000, 3.065790
868.000000, 2.238431
869.000000, 1.567681
870.000000, 1.061470
871.000000, 0.676298
872.000000, 0.412340
873.000000, 0.244886
874.000000, 0.141229
875.000000, 0.082013
876.000000, 0.049910
877.000000, 0.031569
878.000000, 0.020591
879.000000, 0.014340
880.000000, 0.010155
881.000000, 0.007501
882.000000, 0.005615
883.000000, 0.004466
884.000000, 0.003615
885.000000, 0.003024
886.000000, 0.002448
887.000000, 0.002131
888.000000, 0.001762
889.000000, 0.001587
890.000000, 0.001227
891.000000, 0.001079
892.000000, 0.001076
893.000000, 0.000926
894.000000, 0.000829
895.000000, 0.000754
896.000000, 0.000827
897.000000, 0.000803
898.000000, 0.000761
899.000000, 0.000668
900.000000, 0.000833
901.000000, 0.000725
902.000000, 0.000745
903.000000, 0.000732
904.000000, 0.000572
905.000000, 0.000696
906.000000, 0.000692
907.000000, 0.000611
908.000000, 0.000585
909.000000, 0.000568
910.000000, 0.000609
911.000000, 0.000617
912.000000, 0.000624
913.000000, 0.000707
914.000000, 0.000607
915.000000, 0.000579
916.000000, 0.000505
917.000000, 0.000542
918.000000, 0.000488
919.000000, 0.000541
920.000000, 0.000548
921.000000, 0.000534
922.000000, 0.000498
923.000000, 0.000494
924.000000, 0.000498
925.000000, 0.000560
926.000000, 0.000478
927.000000, 0.000492
928.000000, 0.000479
929.000000, 0.000477
930.000000, 0.000506
931.000000, 0.000432
932.000000, 0.000440
933.000000, 0.000510
934.000000, 0.000496
935.000000, 0.000455
936.000000, 0.000481
937.000000, 0.000458
938.000000, 0.000504
939.000000, 0.000485
940.000000, 0.000414
941.000000, 0.000484
942.000000, 0.000535
943.000000, 0.000531
944.000000, 0.000472
945.000000, 0.000509
946.000000, 0.000473
947.000000, 0.000528
948.000000, 0.000475
949.000000, 0.000490
950.000000, 0.000527
951.000000, 0.000468
952.000000, 0.000431
953.000000, 0.000373
954.000000, 0.000461
955.000000, 0.000446
956.000000, 0.000490
957.000000, 0.000462
958.000000, 0.000482
959.000000, 0.000454
960.000000, 0.000425
961.000000, 0.000410
962.000000, 0.000412
963.000000, 0.000497
964.000000, 0.000401
965.000000, 0.000461
966.000000, 0.000366
967.000000, 0.000486
968.000000, 0.000340
969.000000, 0.000411
970.000000, 0.000404
971.000000, 0.000424
972.000000, 0.000386
973.000000, 0.000428
974.000000, 0.000401
975.000000, 0.000394
976.000000, 0.000424
977.000000, 0.000341
978.000000, 0.000397
979.000000, 0.000402
980.000000, 0.000426
981.000000, 0.000429
982.000000, 0.000472
983.000000, 0.000480
984.000000, 0.000461
985.000000, 0.000407
986.000000, 0.000420
987.000000, 0.000459
988.000000, 0.000477
989.000000, 0.000468
990.000000, 0.000421
991.000000, 0.000448
992.000000, 0.000498
993.000000, 0.000416
994.000000, 0.000448
995.000000, 0.000437
996.000000, 0.000465
997.000000, 0.000311
998.000000, 0.000357
999.000000, 0.000367
1000.000000, 0.000420
1001.000000, 0.000387
1002.000000, 0.000410
1003.000000, 0.000398
1004.000000, 0.000332
1005.000000, 0.000489
1006.000000, 0.000417
1007.000000, 0.000451
1008.000000, 0.000305
1009.000000, 0.000450
1010.000000, 0.000365
1011.000000, 0.000411
1012.000000, 0.000449
1013.000000, 0.000428
1014.000000, 0.000459
1015.000000, 0.000427
1016.000000, 0.000482
1017.000000, 0.000448
1018.000000, 0.000460
1019.000000, 0.000453
1020.000000, 0.000363
1021.000000, 0.000481
1022.000000, 0.000501
1023.000000, 0.000403
1024.000000, 0.000436
1025.000000, 0.000355
1026.000000, 0.000458
1027.000000, 0.000446
1028.000000, 0.000410
1029.000000, 0.000377
1030.000000, 0.000380
1031.000000, 0.000452
1032.000000, 0.000393
1033.000000, 0.000476
1034.000000, 0.000430
1035.000000, 0.000373
1036.000000, 0.000412
1037.000000, 0.000439
1038.000000, 0.000396
1039.000000, 0.000482
1040.000000, 0.000484
1041.000000, 0.000396
1042.000000, 0.000356
1043.000000, 0.000417
1044.000000, 0.000426
1045.000000, 0.000450
1046.000000, 0.000387
1047.000000, 0.000432
1048.000000, 0.000437
1049.000000, 0.000426
1050.000000, 0.000387
1051.000000, 0.000415
1052.000000, 0.000529
1053.000000, 0.000392
1054.000000, 0.000455
1055.000000, 0.000426
1056.000000, 0.000359
1057.000000, 0.000429
1058.000000, 0.000392
1059.000000, 0.000380
1060.000000, 0.000423
1061.000000, 0.000499
1062.000000, 0.000400
1063.000000, 0.000489
1064.000000, 0.000428
1065.000000, 0.000369
1066.000000, 0.000435
1067.000000, 0.000451
1068.000000, 0.000472
1069.000000, 0.000462
1070.000000, 0.000409
1071.000000, 0.000496
1072.000000, 0.000382
1073.000000, 0.000343
1074.000000, 0.000447
1075.000000, 0.000437
1076.000000, 0.000392
1077.000000, 0.000437
1078.000000, 0.000349
1079.000000, 0.000445
1080.000000, 0.000455
1081.000000, 0.000459
1082.000000, 0.000339
1083.000000, 0.000403
