# Wavelength  (nm), Transmission (%)
200.000000, 0.000646
201.000000, 0.003945
202.000000, 0.000308
203.000000, 0.001841
204.000000, 0.004894
205.000000, 0.007358
206.000000, 0.003138
207.000000, 0.007124
208.000000, 0.003140
209.000000, 0.003847
210.000000, 0.006660
211.000000, 0.007246
212.000000, 0.004443
213.000000, 0.006430
214.000000, 0.001531
215.000000, 0.003404
216.000000, 0.005972
217.000000, 0.008302
218.000000, 0.004586
219.000000, 0.007259
220.000000, 0.002974
221.000000, 0.003561
222.000000, 0.006689
223.000000, 0.008193
224.000000, 0.004392
225.000000, 0.006469
226.000000, 0.002796
227.000000, 0.005214
228.000000, 0.007166
229.000000, 0.008084
230.000000, 0.005225
231.000000, 0.006370
232.000000, 0.003740
233.000000, 0.003742
234.000000, 0.006599
235.000000, 0.007285
236.000000, 0.005453
237.000000, 0.007397
238.000000, 0.003842
239.000000, 0.003496
240.000000, 0.007508
241.000000, 0.006933
242.000000, 0.005783
243.000000, 0.006815
244.000000, 0.004283
245.000000, 0.003363
246.000000, 0.008310
247.000000, 0.007505
248.000000, 0.005434
249.000000, 0.006699
250.000000, 0.003135
251.000000, 0.003484
252.000000, 0.008311
253.000000, 0.007738
254.000000, 0.005329
255.000000, 0.005903
256.000000, 0.003612
257.000000, 0.003846
258.000000, 0.009229
259.000000, 0.007398
260.000000, 0.004883
261.000000, 0.007170
262.000000, 0.004425
263.000000, 0.004083
264.000000, 0.007400
265.000000, 0.007857
266.000000, 0.004658
267.000000, 0.006828
268.000000, 0.002599
269.000000, 0.003171
270.000000, 0.008543
271.000000, 0.009571
272.000000, 0.003974
273.000000, 0.006257
274.000000, 0.003288
275.000000, 0.005461
276.000000, 0.008315
277.000000, 0.008886
278.000000, 0.003754
279.000000, 0.006376
280.000000, 0.003414
281.000000, 0.004328
282.000000, 0.007633
283.000000, 0.009342
284.000000, 0.007976
285.000000, 0.007862
286.000000, 0.002630
287.000000, 0.006272
288.000000, 0.006615
289.000000, 0.009341
290.000000, 0.004119
291.000000, 0.008432
292.000000, 0.003327
293.000000, 0.005938
294.000000, 0.006620
295.000000, 0.010246
296.000000, 0.003903
297.000000, 0.009453
298.000000, 0.003340
299.000000, 0.004814
300.000000, 0.007643
301.000000, 0.009565
302.000000, 0.004932
303.000000, 0.009226
304.000000, 0.003804
305.000000, 0.006065
306.000000, 0.008436
307.000000, 0.008549
308.000000, 0.004604
309.000000, 0.008775
310.000000, 0.003255
311.000000, 0.005736
312.000000, 0.009563
313.000000, 0.009000
314.000000, 0.005851
315.000000, 0.006976
316.000000, 0.003156
317.000000, 0.004958
318.000000, 0.006306
319.000000, 0.007664
320.000000, 0.004324
321.000000, 0.007219
322.000000, 0.003770
323.000000, 0.004663
324.000000, 0.007888
325.000000, 0.008889
326.000000, 0.004555
327.000000, 0.008444
328.000000, 0.003891
329.000000, 0.005114
330.000000, 0.007557
331.000000, 0.008334
332.000000, 0.005007
333.000000, 0.008224
334.000000, 0.002902
335.000000, 0.005454
336.000000, 0.006120
337.000000, 0.009111
338.000000, 0.004682
339.000000, 0.009554
340.000000, 0.003799
341.000000, 0.005682
342.000000, 0.008115
343.000000, 0.008779
344.000000, 0.008227
345.000000, 0.011872
346.000000, 0.008669
347.000000, 0.011428
348.000000, 0.012861
349.000000, 0.014514
350.000000, 0.008228
351.000000, 0.009551
352.000000, 0.004481
353.000000, 0.006356
354.000000, 0.007566
355.000000, 0.009110
356.000000, 0.006573
357.000000, 0.007455
358.000000, 0.004148
359.000000, 0.006796
360.000000, 0.008780
361.000000, 0.008229
362.000000, 0.006029
363.000000, 0.007569
364.000000, 0.004820
365.000000, 0.007132
366.000000, 0.008890
367.000000, 0.007574
368.000000, 0.005930
369.000000, 0.008233
370.000000, 0.006152
371.000000, 0.007358
372.000000, 0.010969
373.000000, 0.019388
374.000000, 0.042891
375.000000, 0.061232
376.000000, 0.047865
377.000000, 0.030068
378.000000, 0.054779
379.000000, 0.116515
380.000000, 0.140634
381.000000, 0.089513
382.000000, 0.034236
383.000000, 0.023354
384.000000, 0.047053
385.000000, 0.247870
386.000000, 2.724089
387.000000, 15.433612
388.000000, 44.478236
389.000000, 76.684433
390.000000, 93.207103
391.000000, 95.955433
392.000000, 96.216229
393.000000, 96.376234
394.000000, 96.555445
395.000000, 96.604169
396.000000, 96.739876
397.000000, 96.875385
398.000000, 96.859888
399.000000, 96.796093
400.000000, 96.828463
401.000000, 96.975091
402.000000, 97.076278
403.000000, 97.121624
404.000000, 97.146038
405.000000, 97.153172
406.000000, 97.325749
407.000000, 97.328625
408.000000, 97.238145
409.000000, 97.209795
410.000000, 97.198325
411.000000, 97.325691
412.000000, 97.393887
413.000000, 97.105683
414.000000, 96.668521
415.000000, 96.529565
416.000000, 96.766767
417.000000, 97.052929
418.000000, 97.238457
419.000000, 97.414137
420.000000, 97.617142
421.000000, 97.748862
422.000000, 97.727429
423.000000, 97.671112
424.000000, 97.689972
425.000000, 97.651537
426.000000, 97.538462
427.000000, 97.465013
428.000000, 97.386218
429.000000, 97.384493
430.000000, 97.446021
431.000000, 97.534081
432.000000, 97.783661
433.000000, 98.046356
434.000000, 97.986522
435.000000, 97.834270
436.000000, 97.875683
437.000000, 97.956208
438.000000, 97.989752
439.000000, 98.006909
440.000000, 98.006271
441.000000, 98.041429
442.000000, 98.036739
443.000000, 97.944038
444.000000, 97.893909
445.000000, 97.886790
446.000000, 97.803704
447.000000, 97.707094
448.000000, 97.715521
449.000000, 97.645824
450.000000, 97.524595
451.000000, 97.562970
452.000000, 97.660098
453.000000, 97.750824
454.000000, 97.787282
455.000000, 97.819150
456.000000, 97.908699
457.000000, 97.908377
458.000000, 97.822853
459.000000, 97.914323
460.000000, 98.009865
461.000000, 97.932839
462.000000, 97.862489
463.000000, 97.906323
464.000000, 97.900882
465.000000, 97.851800
466.000000, 97.851265
467.000000, 97.884224
468.000000, 97.913584
469.000000, 97.885017
470.000000, 97.819633
471.000000, 97.853349
472.000000, 97.897076
473.000000, 97.872942
474.000000, 97.950745
475.000000, 98.077711
476.000000, 98.059932
477.000000, 97.996029
478.000000, 97.984027
479.000000, 98.032361
480.000000, 98.105866
481.000000, 98.135382
482.000000, 98.144923
483.000000, 98.190994
484.000000, 98.198138
485.000000, 98.148185
486.000000, 98.180904
487.000000, 98.212834
488.000000, 98.095991
489.000000, 98.026896
490.000000, 98.074135
491.000000, 98.101071
492.000000, 98.104214
493.000000, 98.038897
494.000000, 97.932381
495.000000, 97.944214
496.000000, 98.006353
497.000000, 98.046344
498.000000, 98.155666
499.000000, 98.202199
500.000000, 98.132035
501.000000, 98.159476
502.000000, 98.263558
503.000000, 98.280015
504.000000, 98.274949
505.000000, 98.294974
506.000000, 98.295608
507.000000, 98.353239
508.000000, 98.388763
509.000000, 98.292366
510.000000, 98.243928
511.000000, 98.295719
512.000000, 98.291566
513.000000, 98.221678
514.000000, 98.153756
515.000000, 98.207709
516.000000, 98.280211
517.000000, 98.078839
518.000000, 97.863984
519.000000, 98.044673
520.000000, 98.201051
521.000000, 98.059383
522.000000, 98.073366
523.000000, 98.318323
524.000000, 98.385309
525.000000, 98.283175
526.000000, 98.285532
527.000000, 98.384308
528.000000, 98.425925
529.000000, 98.382322
530.000000, 98.405659
531.000000, 98.541565
532.000000, 98.535338
533.000000, 98.412080
534.000000, 98.500045
535.000000, 98.615342
536.000000, 98.579401
537.000000, 98.588474
538.000000, 98.610720
539.000000, 98.520645
540.000000, 98.522793
541.000000, 98.587444
542.000000, 98.514661
543.000000, 98.373393
544.000000, 98.357499
545.000000, 98.467566
546.000000, 98.537110
547.000000, 98.423312
548.000000, 98.319044
549.000000, 98.418786
550.000000, 98.465439
551.000000, 98.420948
552.000000, 98.522582
553.000000, 98.588461
554.000000, 98.469042
555.000000, 98.492098
556.000000, 98.631827
557.000000, 98.603482
558.000000, 98.552363
559.000000, 98.604110
560.000000, 98.654652
561.000000, 98.646371
562.000000, 98.617232
563.000000, 98.685149
564.000000, 98.726616
565.000000, 98.718605
566.000000, 98.735831
567.000000, 98.767833
568.000000, 98.714668
569.000000, 98.596964
570.000000, 98.589023
571.000000, 98.726398
572.000000, 98.703425
573.000000, 98.525156
574.000000, 98.523241
575.000000, 98.632636
576.000000, 98.570397
577.000000, 98.559418
578.000000, 98.612216
579.000000, 98.540386
580.000000, 98.436289
581.000000, 98.490783
582.000000, 98.590865
583.000000, 98.709421
584.000000, 98.670678
585.000000, 98.552173
586.000000, 98.570778
587.000000, 98.572603
588.000000, 98.378105
589.000000, 98.319153
590.000000, 98.495137
591.000000, 98.585349
592.000000, 98.593431
593.000000, 98.583329
594.000000, 98.640432
595.000000, 98.736552
596.000000, 98.519376
597.000000, 98.150075
598.000000, 98.019625
599.000000, 97.863770
600.000000, 97.381834
601.000000, 97.157706
602.000000, 97.430901
603.000000, 97.634628
604.000000, 97.538474
605.000000, 97.650953
606.000000, 97.893445
607.000000, 97.756444
608.000000, 97.415759
609.000000, 97.638444
610.000000, 98.185344
611.000000, 98.526487
612.000000, 98.657816
613.000000, 98.721524
614.000000, 98.564516
615.000000, 98.436244
616.000000, 98.481334
617.000000, 98.390262
618.000000, 98.267101
619.000000, 98.481361
620.000000, 98.596631
621.000000, 98.505460
622.000000, 98.513937
623.000000, 98.677277
624.000000, 98.792635
625.000000, 98.839195
626.000000, 98.742065
627.000000, 98.623223
628.000000, 98.601647
629.000000, 98.602780
630.000000, 98.449903
631.000000, 98.207198
632.000000, 98.136121
633.000000, 98.379863
634.000000, 98.783084
635.000000, 98.965913
636.000000, 98.912931
637.000000, 98.837888
638.000000, 98.664400
639.000000, 98.523942
640.000000, 98.630534
641.000000, 98.674201
642.000000, 98.722274
643.000000, 98.833110
644.000000, 98.734194
645.000000, 98.405607
646.000000, 98.266500
647.000000, 98.445100
648.000000, 98.711537
649.000000, 98.948224
650.000000, 98.965056
651.000000, 98.851134
652.000000, 98.789133
653.000000, 98.735905
654.000000, 98.756058
655.000000, 98.899485
656.000000, 98.862273
657.000000, 98.740160
658.000000, 98.556399
659.000000, 98.335917
660.000000, 98.246543
661.000000, 98.453860
662.000000, 98.607259
663.000000, 98.569171
664.000000, 98.552665
665.000000, 98.546950
666.000000, 98.638484
667.000000, 98.829805
668.000000, 98.856580
669.000000, 98.680338
670.000000, 98.485868
671.000000, 98.382862
672.000000, 98.596146
673.000000, 98.900864
674.000000, 98.929111
675.000000, 98.955267
676.000000, 99.036789
677.000000, 98.909825
678.000000, 98.514953
679.000000, 98.318311
680.000000, 98.419413
681.000000, 98.718007
682.000000, 99.016824
683.000000, 99.123304
684.000000, 98.992064
685.000000, 98.771663
686.000000, 98.512279
687.000000, 98.500229
688.000000, 98.785197
689.000000, 99.006306
690.000000, 99.004750
691.000000, 98.941214
692.000000, 98.953863
693.000000, 98.738645
694.000000, 98.363608
695.000000, 98.296989
696.000000, 98.472749
697.000000, 98.759126
698.000000, 98.860030
699.000000, 98.725956
700.000000, 98.509770
701.000000, 98.471589
702.000000, 98.528026
703.000000, 98.728935
704.000000, 98.776384
705.000000, 98.435978
706.000000, 98.117581
707.000000, 98.265598
708.000000, 98.665574
709.000000, 98.814432
710.000000, 98.745751
711.000000, 98.574572
712.000000, 98.547857
713.000000, 98.776690
714.000000, 98.942610
715.000000, 98.852438
716.000000, 98.605668
717.000000, 98.378966
718.000000, 98.460967
719.000000, 98.798896
720.000000, 98.746923
721.000000, 98.467621
722.000000, 98.489734
723.000000, 98.707119
724.000000, 98.794540
725.000000, 98.772148
726.000000, 98.734278
727.000000, 98.853849
728.000000, 98.907292
729.000000, 98.817049
730.000000, 98.733979
731.000000, 98.700432
732.000000, 98.605212
733.000000, 98.610379
734.000000, 98.644780
735.000000, 98.495011
736.000000, 98.430094
737.000000, 98.416118
738.000000, 97.854247
739.000000, 97.143425
740.000000, 97.328339
741.000000, 98.060168
742.000000, 98.481897
743.000000, 98.468196
744.000000, 98.022493
745.000000, 96.215880
746.000000, 88.206715
747.000000, 64.032221
748.000000, 28.139292
749.000000, 5.314345
750.000000, 0.394821
751.000000, 0.096875
752.000000, 0.018230
753.000000, 0.004442
754.000000, 0.001565
755.000000, 0.000342
756.000000, 0.000565
757.000000, 0.000318
758.000000, 0.000152
759.000000, 0.000062
760.000000, 0.000186
761.000000, 0.000425
762.000000, 0.000351
763.000000, 0.000103
764.000000, 0.000243
765.000000, 0.000004
766.000000, 0.000202
767.000000, 0.000326
768.000000, 0.000400
769.000000, 0.000186
770.000000, 0.000169
771.000000, 0.000087
772.000000, 0.000211
773.000000, 0.000450
774.000000, 0.000376
775.000000, 0.000153
776.000000, 0.000235
777.000000, 0.000120
778.000000, 0.000236
779.000000, 0.000524
780.000000, 0.000326
781.000000, 0.000203
782.000000, 0.000170
783.000000, 0.000046
784.000000, 0.000195
785.000000, 0.000466
786.000000, 0.000359
787.000000, 0.000236
788.000000, 0.000178
789.000000, 0.000071
790.000000, 0.000236
791.000000, 0.000540
792.000000, 0.000351
793.000000, 0.000195
794.000000, 0.000203
795.000000, 0.000154
796.000000, 0.000252
797.000000, 0.000540
798.000000, 0.000367
799.000000, 0.000269
800.000000, 0.000261
801.000000, 0.000105
802.000000, 0.000236
803.000000, 0.000482
804.000000, 0.000310
805.000000, 0.000179
806.000000, 0.000228
807.000000, 0.000129
808.000000, 0.000179
809.000000, 0.000121
810.000000, 0.000105
811.000000, 0.000269
812.000000, 0.000384
813.000000, 0.000425
814.000000, 0.000244
815.000000, 0.000343
816.000000, 0.000055
817.000000, 0.000228
818.000000, 0.000376
819.000000, 0.000433
820.000000, 0.000178
821.000000, 0.000203
822.000000, 0.000080
823.000000, 0.000343
824.000000, 0.000474
825.000000, 0.000466
826.000000, 0.000285
827.000000, 0.000400
828.000000, 0.000260
829.000000, 0.000359
830.000000, 0.000507
831.000000, 0.000524
832.000000, 0.000260
833.000000, 0.000276
834.000000, 0.000293
835.000000, 0.000450
836.000000, 0.000615
837.000000, 0.000649
838.000000, 0.000541
839.000000, 0.000400
840.000000, 0.000367
841.000000, 0.000508
842.000000, 0.000608
843.000000, 0.000550
844.000000, 0.000458
845.000000, 0.000359
846.000000, 0.000409
847.000000, 0.000600
848.000000, 0.000708
849.000000, 0.000683
850.000000, 0.000642
851.000000, 0.000475
852.000000, 0.000609
853.000000, 0.000775
854.000000, 0.000809
855.000000, 0.000809
856.000000, 0.000900
857.000000, 0.000692
858.000000, 0.000692
859.000000, 0.000542
860.000000, 0.000763
861.000000, 0.000640
862.000000, 0.000677
863.000000, 0.000685
864.000000, 0.000592
865.000000, 0.000527
866.000000, 0.000550
867.000000, 0.000550
868.000000, 0.000503
869.000000, 0.000479
870.000000, 0.000552
871.000000, 0.000722
872.000000, 0.000844
873.000000, 0.000704
874.000000, 0.000583
875.000000, 0.000503
876.000000, 0.000423
877.000000, 0.000463
878.000000, 0.000523
879.000000, 0.000566
880.000000, 0.000712
881.000000, 0.000752
882.000000, 0.000672
883.000000, 0.000659
884.000000, 0.000695
885.000000, 0.000717
886.000000, 0.000633
887.000000, 0.000551
888.000000, 0.000560
889.000000, 0.000627
890.000000, 0.000662
891.000000, 0.000583
892.000000, 0.000564
893.000000, 0.000634
894.000000, 0.000700
895.000000, 0.000643
896.000000, 0.000475
897.000000, 0.000436
898.000000, 0.000538
899.000000, 0.000637
900.000000, 0.000694
901.000000, 0.000746
902.000000, 0.000689
903.000000, 0.000536
904.000000, 0.000571
905.000000, 0.000656
906.000000, 0.000711
907.000000, 0.000741
908.000000, 0.000567
909.000000, 0.000495
910.000000, 0.000616
911.000000, 0.000644
912.000000, 0.000579
913.000000, 0.000605
914.000000, 0.000670
915.000000, 0.000658
916.000000, 0.000527
917.000000, 0.000509
918.000000, 0.000570
919.000000, 0.000506
920.000000, 0.000547
921.000000, 0.000739
922.000000, 0.000804
923.000000, 0.000624
924.000000, 0.000475
925.000000, 0.000525
926.000000, 0.000734
927.000000, 0.000780
928.000000, 0.000633
929.000000, 0.000432
930.000000, 0.000529
931.000000, 0.000706
932.000000, 0.000647
933.000000, 0.000535
934.000000, 0.000575
935.000000, 0.000604
936.000000, 0.000579
937.000000, 0.000503
938.000000, 0.000564
939.000000, 0.000808
940.000000, 0.000894
941.000000, 0.000751
942.000000, 0.000523
943.000000, 0.000358
944.000000, 0.000513
945.000000, 0.000678
946.000000, 0.000588
947.000000, 0.000510
948.000000, 0.000616
949.000000, 0.000708
950.000000, 0.000575
951.000000, 0.000417
952.000000, 0.000598
953.000000, 0.000744
954.000000, 0.000617
955.000000, 0.000516
956.000000, 0.000561
957.000000, 0.000514
958.000000, 0.000602
959.000000, 0.000628
960.000000, 0.000705
961.000000, 0.000612
962.000000, 0.000493
963.000000, 0.000598
964.000000, 0.000618
965.000000, 0.000713
966.000000, 0.000670
967.000000, 0.000495
968.000000, 0.000394
969.000000, 0.000541
970.000000, 0.000769
971.000000, 0.000721
972.000000, 0.000555
973.000000, 0.000484
974.000000, 0.000620
975.000000, 0.000568
976.000000, 0.000541
977.000000, 0.000660
978.000000, 0.000583
979.000000, 0.000516
980.000000, 0.000524
981.000000, 0.000658
982.000000, 0.000615
983.000000, 0.000527
984.000000, 0.000734
985.000000, 0.000739
986.000000, 0.000619
987.000000, 0.000501
988.000000, 0.000496
989.000000, 0.000623
990.000000, 0.000553
991.000000, 0.000529
992.000000, 0.000672
993.000000, 0.000610
994.000000, 0.000562
995.000000, 0.000598
996.000000, 0.000677
997.000000, 0.000669
998.000000, 0.000540
999.000000, 0.000590
1000.000000, 0.000712
1001.000000, 0.000726
1002.000000, 0.000592
1003.000000, 0.000504
1004.000000, 0.000484
1005.000000, 0.000711
1006.000000, 0.000661
1007.000000, 0.000571
1008.000000, 0.000486
1009.000000, 0.000490
1010.000000, 0.000744
1011.000000, 0.000792
1012.000000, 0.000667
1013.000000, 0.000581
1014.000000, 0.000463
1015.000000, 0.000468
1016.000000, 0.000680
1017.000000, 0.000637
1018.000000, 0.000558
1019.000000, 0.000533
1020.000000, 0.000569
1021.000000, 0.000740
1022.000000, 0.000669
1023.000000, 0.000570
1024.000000, 0.000501
1025.000000, 0.000514
1026.000000, 0.000725
1027.000000, 0.000746
1028.000000, 0.000639
1029.000000, 0.000589
1030.000000, 0.000511
1031.000000, 0.000473
1032.000000, 0.000726
1033.000000, 0.000734
1034.000000, 0.000613
1035.000000, 0.000554
1036.000000, 0.000427
1037.000000, 0.000441
1038.000000, 0.000756
1039.000000, 0.000702
1040.000000, 0.000614
1041.000000, 0.000561
1042.000000, 0.000549
1043.000000, 0.000542
1044.000000, 0.000738
1045.000000, 0.000751
1046.000000, 0.000674
1047.000000, 0.000620
1048.000000, 0.000518
1049.000000, 0.000447
1050.000000, 0.000474
1051.000000, 0.000729
1052.000000, 0.000691
1053.000000, 0.000691
1054.000000, 0.000598
1055.000000, 0.000536
1056.000000, 0.000470
1057.000000, 0.000470
1058.000000, 0.000725
1059.000000, 0.000735
1060.000000, 0.000625
1061.000000, 0.000580
1062.000000, 0.000555
1063.000000, 0.000508
1064.000000, 0.000490
1065.000000, 0.000749
1066.000000, 0.000692
1067.000000, 0.000717
1068.000000, 0.000648
1069.000000, 0.000621
1070.000000, 0.000604
1071.000000, 0.000522
1072.000000, 0.000443
1073.000000, 0.000402
1074.000000, 0.000411
1075.000000, 0.000727
1076.000000, 0.000677
1077.000000, 0.000683
1078.000000, 0.000667
1079.000000, 0.000655
1080.000000, 0.000405
1081.000000, 0.000508
1082.000000, 0.000731
1083.000000, 0.000674
1084.000000, 0.000577
1085.000000, 0.000633
