# Wavelength  (nm), Transmission (%)
250.000000, 1.210128
251.000000, 1.166640
252.000000, 1.298512
253.000000, 1.298602
254.000000, 0.027753
255.000000, 1.303445
256.000000, 1.695944
257.000000, 1.366446
258.000000, 0.840327
259.000000, 1.716272
260.000000, 1.323448
261.000000, 0.859549
262.000000, 0.438022
263.000000, 0.598149
264.000000, 2.248578
265.000000, 1.973696
266.000000, 1.433044
267.000000, 0.957651
268.000000, 1.637674
269.000000, 2.138966
270.000000, 0.451044
271.000000, 1.894355
272.000000, 1.238091
273.000000, 1.619567
274.000000, 1.485962
275.000000, 0.994198
276.000000, 2.196334
277.000000, 1.980940
278.000000, 1.791021
279.000000, 1.197417
280.000000, 1.254644
281.000000, 1.556063
282.000000, 2.744092
283.000000, 1.946662
284.000000, 1.220109
285.000000, 1.808948
286.000000, 1.535033
287.000000, 1.638150
288.000000, 1.234751
289.000000, 0.194091
290.000000, 1.663944
291.000000, 0.882023
292.000000, 1.599608
293.000000, 1.950038
294.000000, 1.216029
295.000000, 0.188377
296.000000, 2.547502
297.000000, 1.257278
298.000000, 0.899252
299.000000, 1.558828
300.000000, 0.636930
301.000000, 1.706661
302.000000, 2.980984
303.000000, 0.875145
304.000000, 0.620671
305.000000, 1.436590
306.000000, 2.330799
307.000000, 2.260843
308.000000, 0.722001
309.000000, 0.947892
310.000000, 2.109742
311.000000, 3.114060
312.000000, 4.462908
313.000000, 6.718836
314.000000, 8.697576
315.000000, 10.795235
316.000000, 13.974100
317.000000, 17.585324
318.000000, 19.999453
319.000000, 23.633913
320.000000, 24.066159
321.000000, 24.016101
322.000000, 24.888851
323.000000, 23.555867
324.000000, 23.209768
325.000000, 23.285318
326.000000, 22.918437
327.000000, 24.543639
328.000000, 23.067788
329.000000, 22.700214
330.000000, 20.330889
331.000000, 18.944084
332.000000, 16.849842
333.000000, 14.392243
334.000000, 14.301119
335.000000, 14.394146
336.000000, 15.675732
337.000000, 17.804667
338.000000, 19.851944
339.000000, 23.478630
340.000000, 23.607449
341.000000, 25.182609
342.000000, 24.274022
343.000000, 26.072281
344.000000, 25.955736
345.000000, 27.038791
346.000000, 27.128752
347.000000, 27.942324
348.000000, 28.794016
349.000000, 29.020353
350.000000, 28.987894
351.000000, 29.094624
352.000000, 30.843442
353.000000, 31.654726
354.000000, 31.114004
355.000000, 30.635661
356.000000, 30.895631
357.000000, 32.519566
358.000000, 35.044913
359.000000, 37.732765
360.000000, 38.585554
361.000000, 39.005556
362.000000, 38.680849
363.000000, 37.747098
364.000000, 36.716646
365.000000, 34.397158
366.000000, 31.832808
367.000000, 28.890785
368.000000, 24.915910
369.000000, 21.990313
370.000000, 20.105608
371.000000, 19.431833
372.000000, 19.974846
373.000000, 20.822670
374.000000, 21.055034
375.000000, 20.440798
376.000000, 17.884193
377.000000, 14.959379
378.000000, 10.973590
379.000000, 7.363104
380.000000, 4.450948
381.000000, 2.513865
382.000000, 1.351044
383.000000, 0.829033
384.000000, 0.654894
385.000000, 0.537228
386.000000, 0.548659
387.000000, 0.414867
388.000000, 0.494707
389.000000, 0.499155
390.000000, 0.394845
391.000000, 0.419530
392.000000, 0.360896
393.000000, 0.185023
394.000000, 0.244413
395.000000, 0.099262
396.000000, 0.200688
397.000000, 0.211846
398.000000, 0.062989
399.000000, 0.039708
400.000000, 0.140435
401.000000, 0.139401
402.000000, 0.139126
403.000000, 0.110797
404.000000, 0.145033
405.000000, 0.130394
406.000000, 0.092543
407.000000, 0.254211
408.000000, 0.152469
409.000000, 0.048198
410.000000, 0.027409
411.000000, 0.259632
412.000000, 0.192094
413.000000, 0.088741
414.000000, 0.244809
415.000000, 0.245663
416.000000, 0.133129
417.000000, 0.121315
418.000000, 0.184844
419.000000, 0.114106
420.000000, 0.097511
421.000000, 0.178918
422.000000, 0.125991
423.000000, 0.062359
424.000000, 0.085641
425.000000, 0.080676
426.000000, 0.103120
427.000000, 0.060516
428.000000, 0.120877
429.000000, 0.056521
430.000000, 0.099289
431.000000, 0.152748
432.000000, 0.062518
433.000000, 0.071637
434.000000, 0.064376
435.000000, 0.062720
436.000000, 0.081822
437.000000, 0.083783
438.000000, 0.079615
439.000000, 0.022168
440.000000, 0.037073
441.000000, 0.119466
442.000000, 0.068065
443.000000, 0.027396
444.000000, 0.041997
445.000000, 0.068380
446.000000, 0.017791
447.000000, 0.083526
448.000000, 0.046785
449.000000, 0.048761
450.000000, 0.027286
451.000000, 0.034795
452.000000, 0.053940
453.000000, 0.079335
454.000000, 0.076437
455.000000, 0.076032
456.000000, 0.070493
457.000000, 0.031783
458.000000, 0.046772
459.000000, 0.047323
460.000000, 0.070858
461.000000, 0.039035
462.000000, 0.060723
463.000000, 0.020261
464.000000, 0.042247
465.000000, 0.017939
466.000000, 0.011753
467.000000, 0.013621
468.000000, 0.040670
469.000000, 0.049218
470.000000, 0.051854
471.000000, 0.027774
472.000000, 0.047596
473.000000, 0.050485
474.000000, 0.023097
475.000000, 0.013924
476.000000, 0.047577
477.000000, 0.008891
478.000000, 0.050015
479.000000, 0.027910
480.000000, 0.048340
481.000000, 0.038000
482.000000, 0.024540
483.000000, 0.025957
484.000000, 0.021342
485.000000, 0.036018
486.000000, 0.044175
487.000000, 0.054900
488.000000, 0.040613
489.000000, 0.023321
490.000000, 0.038279
491.000000, 0.070131
492.000000, 0.039539
493.000000, 0.034014
494.000000, 0.040582
495.000000, 0.049715
496.000000, 0.029197
497.000000, 0.014289
498.000000, 0.036300
499.000000, 0.026785
500.000000, 0.041809
501.000000, 0.045991
502.000000, 0.051376
503.000000, 0.055170
504.000000, 0.051279
505.000000, 0.050609
506.000000, 0.047268
507.000000, 0.058908
508.000000, 0.102817
509.000000, 0.167907
510.000000, 0.278759
511.000000, 0.334207
512.000000, 0.380334
513.000000, 0.348140
514.000000, 0.269319
515.000000, 0.192454
516.000000, 0.120890
517.000000, 0.085590
518.000000, 0.065396
519.000000, 0.040496
520.000000, 0.041436
521.000000, 0.048818
522.000000, 0.060014
523.000000, 0.047651
524.000000, 0.056112
525.000000, 0.096444
526.000000, 0.202706
527.000000, 0.423834
528.000000, 0.695038
529.000000, 1.027961
530.000000, 1.372393
531.000000, 1.683997
532.000000, 1.969859
533.000000, 2.260720
534.000000, 2.512639
535.000000, 2.774732
536.000000, 3.197702
537.000000, 4.169793
538.000000, 6.192057
539.000000, 9.624633
540.000000, 14.440865
541.000000, 20.439628
542.000000, 27.038000
543.000000, 33.510962
544.000000, 39.104081
545.000000, 43.573512
546.000000, 46.636394
547.000000, 48.545246
548.000000, 49.879268
549.000000, 51.174276
550.000000, 52.892154
551.000000, 55.217931
552.000000, 58.411557
553.000000, 62.406032
554.000000, 67.082339
555.000000, 71.978987
556.000000, 76.629282
557.000000, 80.739186
558.000000, 84.100200
559.000000, 86.734317
560.000000, 88.801811
561.000000, 90.514959
562.000000, 91.933341
563.000000, 92.971181
564.000000, 93.792312
565.000000, 94.352862
566.000000, 94.811554
567.000000, 95.185518
568.000000, 95.636795
569.000000, 96.042118
570.000000, 96.359459
571.000000, 96.568153
572.000000, 96.620559
573.000000, 96.691904
574.000000, 96.771219
575.000000, 96.927116
576.000000, 97.145163
577.000000, 97.342202
578.000000, 97.509647
579.000000, 97.581909
580.000000, 97.571430
581.000000, 97.526659
582.000000, 97.566651
583.000000, 97.679297
584.000000, 97.819617
585.000000, 97.966048
586.000000, 98.124839
587.000000, 98.209084
588.000000, 98.219044
589.000000, 98.179055
590.000000, 98.146786
591.000000, 98.138466
592.000000, 98.156372
593.000000, 98.182038
594.000000, 98.239247
595.000000, 98.245818
596.000000, 98.217089
597.000000, 98.231888
598.000000, 98.251546
599.000000, 98.311969
600.000000, 98.418278
601.000000, 98.522169
602.000000, 98.659618
603.000000, 98.730117
604.000000, 98.753863
605.000000, 98.700563
606.000000, 98.595363
607.000000, 98.488544
608.000000, 98.453698
609.000000, 98.419538
610.000000, 98.417362
611.000000, 98.498165
612.000000, 98.554499
613.000000, 98.623099
614.000000, 98.672585
615.000000, 98.667443
616.000000, 98.628399
617.000000, 98.610679
618.000000, 98.593590
619.000000, 98.609197
620.000000, 98.675318
621.000000, 98.717321
622.000000, 98.775765
623.000000, 98.847152
624.000000, 98.855291
625.000000, 98.894784
626.000000, 98.841923
627.000000, 98.807359
628.000000, 98.762063
629.000000, 98.736937
630.000000, 98.685014
631.000000, 98.652160
632.000000, 98.636611
633.000000, 98.608732
634.000000, 98.553298
635.000000, 98.535215
636.000000, 98.512488
637.000000, 98.504907
638.000000, 98.509757
639.000000, 98.544548
640.000000, 98.595256
641.000000, 98.659152
642.000000, 98.717818
643.000000, 98.786840
644.000000, 98.818758
645.000000, 98.838413
646.000000, 98.775328
647.000000, 98.731019
648.000000, 98.690752
649.000000, 98.582690
650.000000, 98.524652
651.000000, 98.487493
652.000000, 98.470360
653.000000, 98.457178
654.000000, 98.451261
655.000000, 98.452037
656.000000, 98.444794
657.000000, 98.448610
658.000000, 98.427377
659.000000, 98.463536
660.000000, 98.418406
661.000000, 98.414095
662.000000, 98.377389
663.000000, 98.416992
664.000000, 98.440462
665.000000, 98.410320
666.000000, 98.466513
667.000000, 98.448444
668.000000, 98.411466
669.000000, 98.374902
670.000000, 98.322630
671.000000, 98.297766
672.000000, 98.238051
673.000000, 98.181063
674.000000, 98.184030
675.000000, 98.217911
676.000000, 98.245862
677.000000, 98.261173
678.000000, 98.313931
679.000000, 98.409864
680.000000, 98.403080
681.000000, 98.426374
682.000000, 98.426844
683.000000, 98.424548
684.000000, 98.398673
685.000000, 98.343127
686.000000, 98.345587
687.000000, 98.280762
688.000000, 98.282118
689.000000, 98.260833
690.000000, 98.229536
691.000000, 98.241167
692.000000, 98.264365
693.000000, 98.242165
694.000000, 98.268676
695.000000, 98.220053
696.000000, 98.190742
697.000000, 98.168921
698.000000, 98.151381
699.000000, 98.175170
700.000000, 98.164774
701.000000, 98.208707
702.000000, 98.269579
703.000000, 98.284203
704.000000, 98.383567
705.000000, 98.444722
706.000000, 98.466618
707.000000, 98.502464
708.000000, 98.503878
709.000000, 98.473850
710.000000, 98.429901
711.000000, 98.394433
712.000000, 98.365956
713.000000, 98.331847
714.000000, 98.281581
715.000000, 98.259927
716.000000, 98.256050
717.000000, 98.292216
718.000000, 98.305711
719.000000, 98.292610
720.000000, 98.356222
721.000000, 98.327498
722.000000, 98.350064
723.000000, 98.358068
724.000000, 98.356120
725.000000, 98.385375
726.000000, 98.356787
727.000000, 98.368057
728.000000, 98.414126
729.000000, 98.442805
730.000000, 98.501142
731.000000, 98.573502
732.000000, 98.583985
733.000000, 98.696676
734.000000, 98.718531
735.000000, 98.697183
736.000000, 98.753573
737.000000, 98.701144
738.000000, 98.679303
739.000000, 98.646560
740.000000, 98.596986
741.000000, 98.571903
742.000000, 98.522310
743.000000, 98.485444
744.000000, 98.523533
745.000000, 98.509474
746.000000, 98.556534
747.000000, 98.589793
748.000000, 98.668750
749.000000, 98.731245
750.000000, 98.763410
751.000000, 98.810551
752.000000, 98.815759
753.000000, 98.835393
754.000000, 98.815405
755.000000, 98.824513
756.000000, 98.730377
757.000000, 98.708846
758.000000, 98.703488
759.000000, 98.652561
760.000000, 98.634586
761.000000, 98.651091
762.000000, 98.620145
763.000000, 98.671673
764.000000, 98.728371
765.000000, 98.757291
766.000000, 98.805300
767.000000, 98.829591
768.000000, 98.809923
769.000000, 98.836719
770.000000, 98.809307
771.000000, 98.766806
772.000000, 98.718613
773.000000, 98.663839
774.000000, 98.596798
775.000000, 98.515066
776.000000, 98.478130
777.000000, 98.464175
778.000000, 98.419395
779.000000, 98.452019
780.000000, 98.439628
781.000000, 98.498815
782.000000, 98.549631
783.000000, 98.612199
784.000000, 98.625422
785.000000, 98.741271
786.000000, 98.731557
787.000000, 98.733051
788.000000, 98.703853
789.000000, 98.699974
790.000000, 98.607057
791.000000, 98.538152
792.000000, 98.442753
793.000000, 98.342994
794.000000, 98.250640
795.000000, 98.173906
796.000000, 98.064166
797.000000, 97.979986
798.000000, 97.940768
799.000000, 97.940533
800.000000, 97.886174
801.000000, 97.874503
802.000000, 97.820689
803.000000, 97.839962
804.000000, 97.809369
805.000000, 97.802839
806.000000, 97.776119
807.000000, 97.718742
808.000000, 97.684822
809.000000, 97.572787
810.000000, 97.515087
811.000000, 97.434040
812.000000, 97.377418
813.000000, 97.287609
814.000000, 97.228670
815.000000, 97.170125
816.000000, 97.098343
817.000000, 97.098085
818.000000, 97.016179
819.000000, 96.990110
820.000000, 96.942600
821.000000, 96.913511
822.000000, 96.849364
823.000000, 96.781815
824.000000, 96.724936
825.000000, 96.632520
826.000000, 96.523447
827.000000, 96.420289
828.000000, 96.262849
829.000000, 96.149228
830.000000, 96.012950
831.000000, 95.845213
832.000000, 95.748537
833.000000, 95.582249
834.000000, 95.461985
835.000000, 95.383914
836.000000, 95.325261
837.000000, 95.256320
838.000000, 95.170693
839.000000, 95.132662
840.000000, 95.075914
841.000000, 95.011567
842.000000, 94.954364
843.000000, 94.885644
844.000000, 94.804005
845.000000, 94.673995
846.000000, 94.579739
847.000000, 94.404261
848.000000, 94.207731
849.000000, 93.982421
850.000000, 93.747213
851.000000, 93.453589
852.000000, 93.142595
853.000000, 92.805318
854.000000, 92.413406
855.000000, 92.012077
856.000000, 91.589057
857.000000, 91.099726
858.000000, 90.616650
859.000000, 90.126770
860.000000, 89.566963
861.000000, 89.010816
862.000000, 88.478881
863.000000, 87.901328
864.000000, 87.355581
865.000000, 86.828133
866.000000, 86.286693
867.000000, 85.798965
868.000000, 85.367712
869.000000, 84.990221
870.000000, 84.629743
871.000000, 84.352009
872.000000, 84.128401
873.000000, 83.983846
874.000000, 83.897931
875.000000, 83.874863
876.000000, 83.909625
877.000000, 84.025897
878.000000, 84.163597
879.000000, 84.362084
880.000000, 84.575805
881.000000, 84.817328
882.000000, 85.056133
883.000000, 85.319839
884.000000, 85.572108
885.000000, 85.829052
886.000000, 86.043510
887.000000, 86.239205
888.000000, 86.402504
889.000000, 86.544715
890.000000, 86.649698
891.000000, 86.729678
892.000000, 86.786475
893.000000, 86.829581
894.000000, 86.859641
895.000000, 86.889346
896.000000, 86.892689
897.000000, 86.894925
898.000000, 86.913854
899.000000, 86.904692
900.000000, 86.880973
901.000000, 86.839164
902.000000, 86.785727
903.000000, 86.673242
904.000000, 86.529531
905.000000, 86.296732
906.000000, 86.031751
907.000000, 85.651382
908.000000, 85.184304
909.000000, 84.635283
910.000000, 83.986616
911.000000, 83.230952
912.000000, 82.425659
913.000000, 81.583891
914.000000, 80.654675
915.000000, 79.723854
916.000000, 78.806468
917.000000, 77.877929
918.000000, 77.018844
919.000000, 76.243967
920.000000, 75.542925
921.000000, 74.935775
922.000000, 74.480529
923.000000, 74.115632
924.000000, 73.886786
925.000000, 73.806646
926.000000, 73.849642
927.000000, 74.006977
928.000000, 74.284504
929.000000, 74.678567
930.000000, 75.161595
931.000000, 75.707781
932.000000, 76.321166
933.000000, 76.991014
934.000000, 77.676806
935.000000, 78.367453
936.000000, 79.042411
937.000000, 79.680891
938.000000, 80.230008
939.000000, 80.724851
940.000000, 81.122724
941.000000, 81.407676
942.000000, 81.560365
943.000000, 81.628569
944.000000, 81.560639
945.000000, 81.385763
946.000000, 81.086365
947.000000, 80.737588
948.000000, 80.294502
949.000000, 79.786474
950.000000, 79.284749
951.000000, 78.767241
952.000000, 78.237609
953.000000, 77.747364
954.000000, 77.272647
955.000000, 76.861891
956.000000, 76.477301
957.000000, 76.175479
958.000000, 75.888483
959.000000, 75.664200
960.000000, 75.505180
961.000000, 75.368488
962.000000, 75.252388
963.000000, 75.188675
964.000000, 75.122423
965.000000, 75.102388
966.000000, 75.063430
967.000000, 75.026247
968.000000, 74.987390
969.000000, 74.947169
970.000000, 74.901368
971.000000, 74.847463
972.000000, 74.777151
973.000000, 74.708666
974.000000, 74.627375
975.000000, 74.562625
976.000000, 74.500149
977.000000, 74.450300
978.000000, 74.415959
979.000000, 74.418265
980.000000, 74.437580
981.000000, 74.473332
982.000000, 74.554175
983.000000, 74.656556
984.000000, 74.790705
985.000000, 74.939442
986.000000, 75.111225
987.000000, 75.301023
988.000000, 75.486626
989.000000, 75.662616
990.000000, 75.812778
991.000000, 75.928113
992.000000, 76.028623
993.000000, 76.051269
994.000000, 76.018881
995.000000, 75.901930
996.000000, 75.712214
997.000000, 75.438378
998.000000, 75.094807
999.000000, 74.643124
1000.000000, 74.112357
1001.000000, 73.550883
1002.000000, 72.904156
1003.000000, 72.198525
1004.000000, 71.506523
1005.000000, 70.775429
1006.000000, 70.030372
1007.000000, 69.335024
1008.000000, 68.672666
1009.000000, 68.024067
1010.000000, 67.473234
1011.000000, 66.960091
1012.000000, 66.530137
1013.000000, 66.184087
1014.000000, 65.924592
1015.000000, 65.735755
1016.000000, 65.650482
1017.000000, 65.642427
1018.000000, 65.707470
1019.000000, 65.867123
1020.000000, 66.078661
1021.000000, 66.366998
1022.000000, 66.709881
1023.000000, 67.082260
1024.000000, 67.519902
1025.000000, 68.005073
1026.000000, 68.479397
1027.000000, 68.957230
1028.000000, 69.475073
1029.000000, 69.962331
1030.000000, 70.432619
1031.000000, 70.907318
1032.000000, 71.329992
1033.000000, 71.710608
1034.000000, 72.058794
1035.000000, 72.358292
1036.000000, 72.594517
1037.000000, 72.787249
1038.000000, 72.925559
1039.000000, 73.015241
1040.000000, 73.076718
1041.000000, 73.070325
1042.000000, 73.047610
1043.000000, 72.983459
1044.000000, 72.901240
1045.000000, 72.811115
1046.000000, 72.701865
1047.000000, 72.599300
1048.000000, 72.499490
1049.000000, 72.400316
1050.000000, 71.947595
1051.000000, 71.873379
1052.000000, 71.802825
1053.000000, 71.734711
1054.000000, 71.666517
1055.000000, 71.600797
1056.000000, 71.531474
1057.000000, 71.450267
1058.000000, 71.359760
1059.000000, 71.246006
1060.000000, 71.112704
1061.000000, 70.965103
1062.000000, 70.778557
1063.000000, 70.559045
1064.000000, 70.317211
1065.000000, 70.048738
1066.000000, 69.720306
1067.000000, 69.397704
1068.000000, 69.018836
1069.000000, 68.614064
1070.000000, 68.207794
1071.000000, 67.804724
1072.000000, 67.335268
1073.000000, 66.881466
1074.000000, 66.434290
1075.000000, 65.992881
1076.000000, 65.579340
1077.000000, 65.197849
1078.000000, 64.817724
1079.000000, 64.521677
1080.000000, 64.222774
1081.000000, 64.003448
1082.000000, 63.817249
1083.000000, 63.679559
1084.000000, 63.597460
1085.000000, 63.558056
1086.000000, 63.574817
1087.000000, 63.648749
1088.000000, 63.774221
1089.000000, 63.958652
1090.000000, 64.181495
1091.000000, 64.474200
1092.000000, 64.772674
1093.000000, 65.097306
1094.000000, 65.492334
1095.000000, 65.869822
1096.000000, 66.279406
1097.000000, 66.702057
1098.000000, 67.107331
1099.000000, 67.520650
1100.000000, 67.900134
1101.000000, 68.354175
1102.000000, 68.651273
1103.000000, 69.039829
1104.000000, 69.332903
1105.000000, 69.592825
1106.000000, 69.821597
1107.000000, 70.008205
1108.000000, 70.128203
1109.000000, 70.248310
1110.000000, 70.251289
1111.000000, 70.283546
1112.000000, 70.230631
1113.000000, 70.146987
1114.000000, 70.087896
1115.000000, 69.909813
1116.000000, 69.751996
1117.000000, 69.615032
1118.000000, 69.422984
1119.000000, 69.283727
1120.000000, 69.009805
1121.000000, 68.856404
