# Wavelength  (nm), Transmission (%)
200.000000, 0.000127
201.000000, 0.000116
202.000000, 0.000116
203.000000, 0.000107
204.000000, 0.000080
205.000000, 0.000052
206.000000, 0.000030
207.000000, 0.000034
208.000000, 0.000007
209.000000, 0.000017
210.000000, 0.000026
211.000000, 0.000013
212.000000, 0.000002
213.000000, 0.000008
214.000000, 0.000007
215.000000, 0.000008
216.000000, 0.000004
217.000000, 0.000003
218.000000, 0.000009
219.000000, 0.000019
220.000000, 0.000010
221.000000, 0.000007
222.000000, 0.000009
223.000000, 0.000008
224.000000, 0.000002
225.000000, 0.000002
226.000000, 0.000005
227.000000, 0.000005
228.000000, 0.000017
229.000000, 0.000015
230.000000, 0.000012
231.000000, 0.000011
232.000000, 0.000013
233.000000, 0.000014
234.000000, 0.000011
235.000000, 0.000011
236.000000, 0.000009
237.000000, 0.000013
238.000000, 0.000026
239.000000, 0.000040
240.000000, 0.000031
241.000000, 0.000015
242.000000, 0.000001
243.000000, 0.000022
244.000000, 0.000035
245.000000, 0.000046
246.000000, 0.000026
247.000000, 0.000016
248.000000, 0.000007
249.000000, 0.000026
250.000000, 0.000033
251.000000, 0.000036
252.000000, 0.000016
253.000000, 0.000013
254.000000, 0.000007
255.000000, 0.000009
256.000000, 0.000020
257.000000, 0.000006
258.000000, 0.000018
259.000000, 0.000024
260.000000, 0.000001
261.000000, 0.000002
262.000000, 0.000000
263.000000, 0.000029
264.000000, 0.000035
265.000000, 0.000031
266.000000, 0.000002
267.000000, 0.000001
268.000000, 0.000007
269.000000, 0.000034
270.000000, 0.000031
271.000000, 0.000035
272.000000, 0.000024
273.000000, 0.000042
274.000000, 0.000052
275.000000, 0.000064
276.000000, 0.000058
277.000000, 0.000040
278.000000, 0.000021
279.000000, 0.000012
280.000000, 0.000029
281.000000, 0.000053
282.000000, 0.000058
283.000000, 0.000041
284.000000, 0.000025
285.000000, 0.000033
286.000000, 0.000057
287.000000, 0.000070
288.000000, 0.000051
289.000000, 0.000032
290.000000, 0.000013
291.000000, 0.000012
292.000000, 0.000019
293.000000, 0.000032
294.000000, 0.000027
295.000000, 0.000002
296.000000, 0.000005
297.000000, 0.000021
298.000000, 0.000067
299.000000, 0.000063
300.000000, 0.000062
301.000000, 0.000027
302.000000, 0.000043
303.000000, 0.000046
304.000000, 0.000075
305.000000, 0.000069
306.000000, 0.000064
307.000000, 0.000025
308.000000, 0.000020
309.000000, 0.000021
310.000000, 0.000069
311.000000, 0.000057
312.000000, 0.000043
313.000000, 0.000015
314.000000, 0.000027
315.000000, 0.000028
316.000000, 0.000024
317.000000, 0.000001
318.000000, 0.000001
319.000000, 0.000015
320.000000, 0.000014
321.000000, 0.000004
322.000000, 0.000011
323.000000, 0.000024
324.000000, 0.000013
325.000000, 0.000012
326.000000, 0.000014
327.000000, 0.000019
328.000000, 0.000013
329.000000, 0.000012
330.000000, 0.000011
331.000000, 0.000004
332.000000, 0.000008
333.000000, 0.000006
334.000000, 0.000016
335.000000, 0.000008
336.000000, 0.000012
337.000000, 0.000006
338.000000, 0.000008
339.000000, 0.000005
340.000000, 0.000027
341.000000, 0.000020
342.000000, 0.000017
343.000000, 0.000013
344.000000, 0.000007
345.000000, 0.000013
346.000000, 0.000013
347.000000, 0.000009
348.000000, 0.000022
349.000000, 0.000005
350.000000, 0.000005
351.000000, 0.000002
352.000000, 0.000017
353.000000, 0.000018
354.000000, 0.000021
355.000000, 0.000003
356.000000, 0.000005
357.000000, 0.000012
358.000000, 0.000037
359.000000, 0.000038
360.000000, 0.000034
361.000000, 0.000028
362.000000, 0.000021
363.000000, 0.000009
364.000000, 0.000005
365.000000, 0.000011
366.000000, 0.000029
367.000000, 0.000030
368.000000, 0.000030
369.000000, 0.000021
370.000000, 0.000033
371.000000, 0.000051
372.000000, 0.000064
373.000000, 0.000075
374.000000, 0.000067
375.000000, 0.000078
376.000000, 0.000086
377.000000, 0.000081
378.000000, 0.000067
379.000000, 0.000042
380.000000, 0.000041
381.000000, 0.000035
382.000000, 0.000034
383.000000, 0.000040
384.000000, 0.000070
385.000000, 0.000102
386.000000, 0.000142
387.000000, 0.000167
388.000000, 0.000208
389.000000, 0.000249
390.000000, 0.000316
391.000000, 0.000385
392.000000, 0.000465
393.000000, 0.000536
394.000000, 0.000604
395.000000, 0.000684
396.000000, 0.000782
397.000000, 0.000899
398.000000, 0.001011
399.000000, 0.001114
400.000000, 0.001198
401.000000, 0.001276
402.000000, 0.001361
403.000000, 0.001459
404.000000, 0.001541
405.000000, 0.001610
406.000000, 0.001661
407.000000, 0.001715
408.000000, 0.001768
409.000000, 0.001818
410.000000, 0.001869
411.000000, 0.001921
412.000000, 0.001975
413.000000, 0.002046
414.000000, 0.002107
415.000000, 0.002193
416.000000, 0.002265
417.000000, 0.002357
418.000000, 0.002438
419.000000, 0.002544
420.000000, 0.002640
421.000000, 0.002750
422.000000, 0.002852
423.000000, 0.002967
424.000000, 0.003071
425.000000, 0.003188
426.000000, 0.003289
427.000000, 0.003381
428.000000, 0.003463
429.000000, 0.003557
430.000000, 0.003648
431.000000, 0.003721
432.000000, 0.003757
433.000000, 0.003789
434.000000, 0.003804
435.000000, 0.003827
436.000000, 0.003834
437.000000, 0.003841
438.000000, 0.003837
439.000000, 0.003846
440.000000, 0.003876
441.000000, 0.003942
442.000000, 0.004036
443.000000, 0.004148
444.000000, 0.004258
445.000000, 0.004382
446.000000, 0.004528
447.000000, 0.004703
448.000000, 0.004903
449.000000, 0.005102
450.000000, 0.005301
451.000000, 0.005490
452.000000, 0.005696
453.000000, 0.005920
454.000000, 0.006149
455.000000, 0.006361
456.000000, 0.006546
457.000000, 0.006703
458.000000, 0.006860
459.000000, 0.007017
460.000000, 0.007182
461.000000, 0.007312
462.000000, 0.007391
463.000000, 0.007442
464.000000, 0.007487
465.000000, 0.007536
466.000000, 0.007573
467.000000, 0.007586
468.000000, 0.007567
469.000000, 0.007526
470.000000, 0.007481
471.000000, 0.007446
472.000000, 0.007411
473.000000, 0.007365
474.000000, 0.007302
475.000000, 0.007233
476.000000, 0.007168
477.000000, 0.007118
478.000000, 0.007069
479.000000, 0.007001
480.000000, 0.006902
481.000000, 0.006796
482.000000, 0.006713
483.000000, 0.006665
484.000000, 0.006622
485.000000, 0.006559
486.000000, 0.006473
487.000000, 0.006405
488.000000, 0.006339
489.000000, 0.006288
490.000000, 0.006234
491.000000, 0.006183
492.000000, 0.006126
493.000000, 0.006069
494.000000, 0.006030
495.000000, 0.006016
496.000000, 0.006002
497.000000, 0.005974
498.000000, 0.005925
499.000000, 0.005881
500.000000, 0.005848
501.000000, 0.005843
502.000000, 0.005842
503.000000, 0.005832
504.000000, 0.005796
505.000000, 0.005765
506.000000, 0.005752
507.000000, 0.005769
508.000000, 0.005785
509.000000, 0.005799
510.000000, 0.005803
511.000000, 0.005814
512.000000, 0.005837
513.000000, 0.005879
514.000000, 0.005927
515.000000, 0.005972
516.000000, 0.006004
517.000000, 0.006039
518.000000, 0.006084
519.000000, 0.006151
520.000000, 0.006230
521.000000, 0.006294
522.000000, 0.006338
523.000000, 0.006383
524.000000, 0.006458
525.000000, 0.006557
526.000000, 0.006648
527.000000, 0.006725
528.000000, 0.006807
529.000000, 0.006899
530.000000, 0.007016
531.000000, 0.007138
532.000000, 0.007251
533.000000, 0.007348
534.000000, 0.007433
535.000000, 0.007521
536.000000, 0.007622
537.000000, 0.007728
538.000000, 0.007831
539.000000, 0.007923
540.000000, 0.008007
541.000000, 0.008090
542.000000, 0.008156
543.000000, 0.008208
544.000000, 0.008261
545.000000, 0.008320
546.000000, 0.008378
547.000000, 0.008411
548.000000, 0.008428
549.000000, 0.008443
550.000000, 0.008455
551.000000, 0.008466
552.000000, 0.008467
553.000000, 0.008458
554.000000, 0.008429
555.000000, 0.008385
556.000000, 0.008351
557.000000, 0.008315
558.000000, 0.008264
559.000000, 0.008191
560.000000, 0.008109
561.000000, 0.008029
562.000000, 0.007958
563.000000, 0.007883
564.000000, 0.007799
565.000000, 0.007722
566.000000, 0.007640
567.000000, 0.007563
568.000000, 0.007478
569.000000, 0.007387
570.000000, 0.007289
571.000000, 0.007198
572.000000, 0.007112
573.000000, 0.007032
574.000000, 0.006943
575.000000, 0.006859
576.000000, 0.006788
577.000000, 0.006720
578.000000, 0.006657
579.000000, 0.006586
580.000000, 0.006538
581.000000, 0.006500
582.000000, 0.006465
583.000000, 0.006417
584.000000, 0.006373
585.000000, 0.006353
586.000000, 0.006343
587.000000, 0.006341
588.000000, 0.006338
589.000000, 0.006355
590.000000, 0.006378
591.000000, 0.006404
592.000000, 0.006438
593.000000, 0.006478
594.000000, 0.006541
595.000000, 0.006591
596.000000, 0.006666
597.000000, 0.006743
598.000000, 0.006847
599.000000, 0.006942
600.000000, 0.007059
601.000000, 0.007137
602.000000, 0.007218
603.000000, 0.007291
604.000000, 0.007408
605.000000, 0.007528
606.000000, 0.007661
607.000000, 0.007770
608.000000, 0.007890
609.000000, 0.008000
610.000000, 0.008150
611.000000, 0.008277
612.000000, 0.008430
613.000000, 0.008546
614.000000, 0.008680
615.000000, 0.008799
616.000000, 0.008948
617.000000, 0.009100
618.000000, 0.009256
619.000000, 0.009377
620.000000, 0.009499
621.000000, 0.009606
622.000000, 0.009737
623.000000, 0.009857
624.000000, 0.009995
625.000000, 0.010119
626.000000, 0.010234
627.000000, 0.010323
628.000000, 0.010407
629.000000, 0.010500
630.000000, 0.010595
631.000000, 0.010706
632.000000, 0.010795
633.000000, 0.010881
634.000000, 0.010939
635.000000, 0.011015
636.000000, 0.011107
637.000000, 0.011215
638.000000, 0.011304
639.000000, 0.011382
640.000000, 0.011467
641.000000, 0.011574
642.000000, 0.011691
643.000000, 0.011812
644.000000, 0.011945
645.000000, 0.012079
646.000000, 0.012223
647.000000, 0.012382
648.000000, 0.012535
649.000000, 0.012705
650.000000, 0.012893
651.000000, 0.013115
652.000000, 0.013328
653.000000, 0.013529
654.000000, 0.013766
655.000000, 0.014071
656.000000, 0.014374
657.000000, 0.014676
658.000000, 0.014990
659.000000, 0.015386
660.000000, 0.015839
661.000000, 0.016318
662.000000, 0.016781
663.000000, 0.017251
664.000000, 0.017774
665.000000, 0.018358
666.000000, 0.019020
667.000000, 0.019693
668.000000, 0.020457
669.000000, 0.021226
670.000000, 0.022051
671.000000, 0.022930
672.000000, 0.023938
673.000000, 0.024975
674.000000, 0.026064
675.000000, 0.027214
676.000000, 0.028500
677.000000, 0.029889
678.000000, 0.031384
679.000000, 0.033007
680.000000, 0.034634
681.000000, 0.036252
682.000000, 0.037947
683.000000, 0.039764
684.000000, 0.041803
685.000000, 0.043816
686.000000, 0.045951
687.000000, 0.048006
688.000000, 0.050262
689.000000, 0.052563
690.000000, 0.055071
691.000000, 0.057484
692.000000, 0.059871
693.000000, 0.062180
694.000000, 0.064549
695.000000, 0.067031
696.000000, 0.069513
697.000000, 0.071943
698.000000, 0.074416
699.000000, 0.076979
700.000000, 0.079569
701.000000, 0.081986
702.000000, 0.084551
703.000000, 0.086935
704.000000, 0.089396
705.000000, 0.091501
706.000000, 0.093837
707.000000, 0.096211
708.000000, 0.098718
709.000000, 0.101019
710.000000, 0.103084
711.000000, 0.104967
712.000000, 0.107076
713.000000, 0.109162
714.000000, 0.111366
715.000000, 0.113417
716.000000, 0.115432
717.000000, 0.117361
718.000000, 0.119052
719.000000, 0.121135
720.000000, 0.122911
721.000000, 0.124934
722.000000, 0.126465
723.000000, 0.128092
724.000000, 0.129747
725.000000, 0.131351
726.000000, 0.133097
727.000000, 0.134658
728.000000, 0.136205
729.000000, 0.137913
730.000000, 0.139282
731.000000, 0.140887
732.000000, 0.142289
733.000000, 0.143573
734.000000, 0.144745
735.000000, 0.146050
736.000000, 0.147406
737.000000, 0.148860
738.000000, 0.150085
739.000000, 0.151354
740.000000, 0.152330
741.000000, 0.153272
742.000000, 0.154566
743.000000, 0.155713
744.000000, 0.157082
745.000000, 0.157896
746.000000, 0.159015
747.000000, 0.159762
748.000000, 0.160901
749.000000, 0.162066
750.000000, 0.163247
751.000000, 0.164303
752.000000, 0.165129
753.000000, 0.165975
754.000000, 0.166945
755.000000, 0.167940
756.000000, 0.168998
757.000000, 0.169696
758.000000, 0.170307
759.000000, 0.170858
760.000000, 0.171868
761.000000, 0.172670
762.000000, 0.173457
763.000000, 0.173896
764.000000, 0.174590
765.000000, 0.175352
766.000000, 0.176147
767.000000, 0.176698
768.000000, 0.177495
769.000000, 0.177901
770.000000, 0.178641
771.000000, 0.178855
772.000000, 0.179318
773.000000, 0.179715
774.000000, 0.180282
775.000000, 0.180888
776.000000, 0.181450
777.000000, 0.181991
778.000000, 0.182507
779.000000, 0.182738
780.000000, 0.183115
781.000000, 0.183676
782.000000, 0.183888
783.000000, 0.183904
784.000000, 0.183939
785.000000, 0.184378
786.000000, 0.184595
787.000000, 0.184882
788.000000, 0.185234
789.000000, 0.185735
790.000000, 0.185965
791.000000, 0.186303
792.000000, 0.186456
793.000000, 0.186544
794.000000, 0.186504
795.000000, 0.186517
796.000000, 0.186641
797.000000, 0.186840
798.000000, 0.187069
799.000000, 0.187232
800.000000, 0.187503
801.000000, 0.187375
802.000000, 0.187230
803.000000, 0.186813
804.000000, 0.186747
805.000000, 0.186910
806.000000, 0.186933
807.000000, 0.186767
808.000000, 0.186512
809.000000, 0.186368
810.000000, 0.186615
811.000000, 0.186897
812.000000, 0.187080
813.000000, 0.186803
814.000000, 0.186492
815.000000, 0.186250
816.000000, 0.186034
817.000000, 0.185781
818.000000, 0.185542
819.000000, 0.185673
820.000000, 0.185379
821.000000, 0.185142
822.000000, 0.184743
823.000000, 0.184611
824.000000, 0.184713
825.000000, 0.184840
826.000000, 0.184677
827.000000, 0.184446
828.000000, 0.184345
829.000000, 0.184439
830.000000, 0.184136
831.000000, 0.183709
832.000000, 0.183337
833.000000, 0.183074
834.000000, 0.182671
835.000000, 0.182215
836.000000, 0.181900
837.000000, 0.181631
838.000000, 0.181256
839.000000, 0.180858
840.000000, 0.180471
841.000000, 0.180287
842.000000, 0.180077
843.000000, 0.179715
844.000000, 0.179356
845.000000, 0.178681
846.000000, 0.177979
847.000000, 0.177163
848.000000, 0.176691
849.000000, 0.176529
850.000000, 0.176643
851.000000, 0.176618
852.000000, 0.176545
853.000000, 0.176217
854.000000, 0.175894
855.000000, 0.174616
856.000000, 0.173253
857.000000, 0.172291
858.000000, 0.172405
859.000000, 0.172236
860.000000, 0.171393
861.000000, 0.169101
862.000000, 0.166990
863.000000, 0.165614
864.000000, 0.166423
865.000000, 0.168634
866.000000, 0.170969
867.000000, 0.170865
868.000000, 0.168002
869.000000, 0.164633
870.000000, 0.162591
871.000000, 0.161994
872.000000, 0.162010
873.000000, 0.162958
874.000000, 0.164262
875.000000, 0.164781
876.000000, 0.164082
877.000000, 0.162439
878.000000, 0.160479
879.000000, 0.159291
880.000000, 0.159682
881.000000, 0.160925
882.000000, 0.162010
883.000000, 0.161130
884.000000, 0.158568
885.000000, 0.156105
886.000000, 0.156071
887.000000, 0.157992
888.000000, 0.158499
889.000000, 0.156612
890.000000, 0.153947
891.000000, 0.152798
892.000000, 0.153369
893.000000, 0.154463
894.000000, 0.155102
895.000000, 0.153881
896.000000, 0.151368
897.000000, 0.149329
898.000000, 0.149055
899.000000, 0.150337
900.000000, 0.151328
901.000000, 0.150336
902.000000, 0.147480
903.000000, 0.145254
904.000000, 0.145892
905.000000, 0.148149
906.000000, 0.148740
907.000000, 0.147349
908.000000, 0.146107
909.000000, 0.145341
910.000000, 0.143822
911.000000, 0.141784
912.000000, 0.141249
913.000000, 0.141578
914.000000, 0.141100
915.000000, 0.139579
916.000000, 0.138946
917.000000, 0.140100
918.000000, 0.141936
919.000000, 0.142471
920.000000, 0.140425
921.000000, 0.137691
922.000000, 0.136859
923.000000, 0.138146
924.000000, 0.138840
925.000000, 0.136780
926.000000, 0.133964
927.000000, 0.133265
928.000000, 0.135106
929.000000, 0.136518
930.000000, 0.134760
931.000000, 0.131065
932.000000, 0.128695
933.000000, 0.129385
934.000000, 0.132167
935.000000, 0.133419
936.000000, 0.132183
937.000000, 0.130102
938.000000, 0.129519
939.000000, 0.129900
940.000000, 0.130190
941.000000, 0.129471
942.000000, 0.127793
943.000000, 0.126324
944.000000, 0.126101
945.000000, 0.126902
946.000000, 0.127776
947.000000, 0.127346
948.000000, 0.125693
949.000000, 0.124264
950.000000, 0.124253
951.000000, 0.124818
952.000000, 0.123968
953.000000, 0.122483
954.000000, 0.121847
955.000000, 0.122377
956.000000, 0.122644
957.000000, 0.122878
958.000000, 0.122257
959.000000, 0.121140
960.000000, 0.120258
961.000000, 0.120022
962.000000, 0.120871
963.000000, 0.121256
964.000000, 0.120862
965.000000, 0.120547
966.000000, 0.120256
967.000000, 0.119604
968.000000, 0.117597
969.000000, 0.116410
970.000000, 0.116537
971.000000, 0.117939
972.000000, 0.118693
973.000000, 0.118459
974.000000, 0.117470
975.000000, 0.117072
976.000000, 0.116944
977.000000, 0.116611
978.000000, 0.116351
979.000000, 0.116229
980.000000, 0.115495
981.000000, 0.113838
982.000000, 0.113138
983.000000, 0.113388
984.000000, 0.113833
985.000000, 0.114846
986.000000, 0.116028
987.000000, 0.116366
988.000000, 0.114624
989.000000, 0.112480
990.000000, 0.112290
991.000000, 0.112794
992.000000, 0.112893
993.000000, 0.111310
994.000000, 0.109678
995.000000, 0.109959
996.000000, 0.110913
997.000000, 0.111767
998.000000, 0.111284
999.000000, 0.111590
1000.000000, 0.111982
1001.000000, 0.111797
1002.000000, 0.110307
1003.000000, 0.109006
1004.000000, 0.109815
1005.000000, 0.111203
1006.000000, 0.112145
1007.000000, 0.110888
1008.000000, 0.109150
1009.000000, 0.108267
1010.000000, 0.108949
1011.000000, 0.110027
1012.000000, 0.110689
1013.000000, 0.109857
1014.000000, 0.108458
1015.000000, 0.107292
1016.000000, 0.107937
1017.000000, 0.109612
1018.000000, 0.110373
1019.000000, 0.109640
1020.000000, 0.107735
1021.000000, 0.106667
1022.000000, 0.107161
1023.000000, 0.108610
1024.000000, 0.109592
1025.000000, 0.108762
1026.000000, 0.107763
1027.000000, 0.107132
1028.000000, 0.108034
1029.000000, 0.109019
1030.000000, 0.109620
1031.000000, 0.108912
1032.000000, 0.107554
1033.000000, 0.106142
1034.000000, 0.105060
1035.000000, 0.105871
1036.000000, 0.107330
1037.000000, 0.108538
1038.000000, 0.108086
1039.000000, 0.106857
1040.000000, 0.105996
1041.000000, 0.106679
1042.000000, 0.108123
1043.000000, 0.109164
1044.000000, 0.108703
1045.000000, 0.107614
1046.000000, 0.106828
1047.000000, 0.105542
1048.000000, 0.104851
1049.000000, 0.106157
1050.000000, 0.108157
1051.000000, 0.109863
1052.000000, 0.109307
1053.000000, 0.108334
1054.000000, 0.107084
1055.000000, 0.106095
1056.000000, 0.105413
1057.000000, 0.107195
1058.000000, 0.109093
1059.000000, 0.110957
1060.000000, 0.110843
1061.000000, 0.110261
1062.000000, 0.109450
1063.000000, 0.108684
1064.000000, 0.107740
1065.000000, 0.106692
1066.000000, 0.105242
1067.000000, 0.104942
1068.000000, 0.107052
1069.000000, 0.109616
1070.000000, 0.111357
1071.000000, 0.111425
1072.000000, 0.111330
1073.000000, 0.110996
1074.000000, 0.109966
1075.000000, 0.108475
1076.000000, 0.107513
1077.000000, 0.109232
1078.000000, 0.111469
1079.000000, 0.113181
1080.000000, 0.112248
1081.000000, 0.111076
1082.000000, 0.109993
1083.000000, 0.109159
1084.000000, 0.110423
1085.000000, 0.112285
1086.000000, 0.113831
1087.000000, 0.113672
1088.000000, 0.112964
1089.000000, 0.112226
1090.000000, 0.111213
1091.000000, 0.110625
1092.000000, 0.112833
1093.000000, 0.115049
1094.000000, 0.117268
1095.000000, 0.116600
1096.000000, 0.115587
1097.000000, 0.114083
1098.000000, 0.113216
1099.000000, 0.112488
1100.000000, 0.112704
1101.000000, 0.114972
