# Wavelength  (nm), Transmission (%)
200.000000, -0.000014
201.000000, -0.000017
202.000000, -0.000028
203.000000, 0.000002
204.000000, -0.000017
205.000000, -0.000014
206.000000, -0.000012
207.000000, -0.000001
208.000000, -0.000009
209.000000, -0.000014
210.000000, 0.000007
211.000000, -0.000014
212.000000, 0.000003
213.000000, -0.000001
214.000000, -0.000008
215.000000, -0.000002
216.000000, -0.000008
217.000000, -0.000000
218.000000, 0.000003
219.000000, -0.000015
220.000000, 0.000000
221.000000, 0.000005
222.000000, -0.000009
223.000000, -0.000001
224.000000, -0.000006
225.000000, -0.000015
226.000000, 0.000004
227.000000, 0.000002
228.000000, 0.000004
229.000000, 0.000002
230.000000, 0.000001
231.000000, 0.000006
232.000000, 0.000002
233.000000, -0.000002
234.000000, 0.000007
235.000000, 0.000001
236.000000, -0.000000
237.000000, 0.000005
238.000000, 0.000012
239.000000, 0.000001
240.000000, 0.000000
241.000000, 0.000004
242.000000, 0.000002
243.000000, 0.000015
244.000000, -0.000004
245.000000, 0.000002
246.000000, 0.000016
247.000000, 0.000003
248.000000, 0.000005
249.000000, -0.000006
250.000000, 0.000012
251.000000, 0.000000
252.000000, 0.000001
253.000000, 0.000003
254.000000, 0.000001
255.000000, -0.000001
256.000000, 0.000001
257.000000, -0.000006
258.000000, 0.000004
259.000000, 0.000017
260.000000, 0.000004
261.000000, -0.000001
262.000000, 0.000001
263.000000, 0.000001
264.000000, 0.000014
265.000000, 0.000001
266.000000, -0.000001
267.000000, 0.000013
268.000000, 0.000004
269.000000, 0.000000
270.000000, 0.000013
271.000000, 0.000003
272.000000, 0.000005
273.000000, 0.000017
274.000000, 0.000011
275.000000, 0.000002
276.000000, 0.000017
277.000000, 0.000007
278.000000, 0.000002
279.000000, 0.000006
280.000000, 0.000015
281.000000, 0.000000
282.000000, 0.000010
283.000000, 0.000011
284.000000, -0.000004
285.000000, 0.000004
286.000000, 0.000019
287.000000, 0.000006
288.000000, 0.000006
289.000000, 0.000014
290.000000, 0.000009
291.000000, 0.000013
292.000000, 0.000003
293.000000, 0.000009
294.000000, 0.000017
295.000000, 0.000003
296.000000, 0.000012
297.000000, 0.000016
298.000000, 0.000006
299.000000, 0.000014
300.000000, 0.000008
301.000000, 0.000027
302.000000, 0.000006
303.000000, 0.000002
304.000000, 0.000026
305.000000, -0.000001
306.000000, 0.000006
307.000000, 0.000005
308.000000, -0.000002
309.000000, 0.000023
310.000000, 0.000002
311.000000, 0.000001
312.000000, -0.000005
313.000000, -0.000000
314.000000, 0.000011
315.000000, 0.000017
316.000000, 0.000006
317.000000, 0.000009
318.000000, 0.000004
319.000000, 0.000001
320.000000, 0.000020
321.000000, 0.000005
322.000000, 0.000003
323.000000, 0.000000
324.000000, 0.000003
325.000000, 0.000021
326.000000, 0.000013
327.000000, 0.000007
328.000000, 0.000011
329.000000, 0.000033
330.000000, 0.000000
331.000000, -0.000001
332.000000, 0.000027
333.000000, 0.000000
334.000000, 0.000002
335.000000, 0.000005
336.000000, -0.000001
337.000000, 0.000003
338.000000, 0.000014
339.000000, -0.000003
340.000000, -0.000005
341.000000, 0.000004
342.000000, -0.000000
343.000000, 0.000001
344.000000, 0.000002
345.000000, 0.000005
346.000000, 0.000002
347.000000, -0.000016
348.000000, 0.000009
349.000000, -0.000129
350.000000, -0.000011
351.000000, 0.000004
352.000000, 0.000008
353.000000, -0.000011
354.000000, 0.000003
355.000000, -0.000006
356.000000, 0.000007
357.000000, 0.000001
358.000000, -0.000007
359.000000, 0.000004
360.000000, -0.000008
361.000000, 0.000003
362.000000, 0.000005
363.000000, -0.000009
364.000000, 0.000002
365.000000, 0.000002
366.000000, 0.000001
367.000000, -0.000007
368.000000, 0.000003
369.000000, 0.000002
370.000000, -0.000000
371.000000, -0.000009
372.000000, 0.000003
373.000000, 0.000002
374.000000, 0.000001
375.000000, 0.000003
376.000000, 0.000002
377.000000, -0.000012
378.000000, 0.000010
379.000000, 0.000004
380.000000, 0.000002
381.000000, 0.000002
382.000000, 0.000001
383.000000, -0.000006
384.000000, -0.000001
385.000000, 0.000002
386.000000, 0.000001
387.000000, -0.000003
388.000000, 0.000001
389.000000, 0.000004
390.000000, 0.000001
391.000000, 0.000001
392.000000, -0.000006
393.000000, -0.000001
394.000000, -0.000009
395.000000, 0.000000
396.000000, 0.000001
397.000000, 0.000001
398.000000, 0.000004
399.000000, -0.000007
400.000000, 0.000000
401.000000, -0.000005
402.000000, -0.000002
403.000000, 0.000003
404.000000, -0.000006
405.000000, 0.000005
406.000000, -0.000000
407.000000, -0.000000
408.000000, -0.000003
409.000000, -0.000006
410.000000, -0.000000
411.000000, 0.000003
412.000000, 0.000004
413.000000, -0.000011
414.000000, 0.000000
415.000000, 0.000004
416.000000, 0.000002
417.000000, -0.000004
418.000000, -0.000006
419.000000, -0.000003
420.000000, 0.000000
421.000000, 0.000000
422.000000, 0.000002
423.000000, 0.000004
424.000000, -0.000015
425.000000, -0.000000
426.000000, 0.000001
427.000000, -0.000007
428.000000, 0.000010
429.000000, 0.000000
430.000000, 0.000005
431.000000, -0.000011
432.000000, 0.000002
433.000000, 0.000000
434.000000, 0.000005
435.000000, -0.000010
436.000000, -0.000001
437.000000, -0.000004
438.000000, 0.000000
439.000000, 0.000008
440.000000, -0.000002
441.000000, -0.000005
442.000000, 0.000005
443.000000, 0.000003
444.000000, 0.000002
445.000000, -0.000001
446.000000, 0.000004
447.000000, -0.000002
448.000000, -0.000009
449.000000, 0.000004
450.000000, -0.000001
451.000000, 0.000010
452.000000, 0.000000
453.000000, -0.000008
454.000000, 0.000004
455.000000, 0.000001
456.000000, 0.000001
457.000000, 0.000002
458.000000, -0.000004
459.000000, 0.000000
460.000000, -0.000004
461.000000, -0.000005
462.000000, 0.000006
463.000000, -0.000001
464.000000, 0.000004
465.000000, -0.000006
466.000000, -0.000001
467.000000, 0.000007
468.000000, 0.000006
469.000000, 0.000005
470.000000, 0.000003
471.000000, 0.000001
472.000000, 0.000004
473.000000, -0.000003
474.000000, 0.000000
475.000000, 0.000001
476.000000, -0.000002
477.000000, -0.000002
478.000000, 0.000003
479.000000, 0.000006
480.000000, 0.000001
481.000000, 0.000000
482.000000, 0.000001
483.000000, 0.000001
484.000000, 0.000004
485.000000, 0.000002
486.000000, 0.000007
487.000000, -0.000000
488.000000, 0.000004
489.000000, 0.000002
490.000000, -0.000002
491.000000, -0.000002
492.000000, -0.000000
493.000000, 0.000003
494.000000, 0.000000
495.000000, 0.000001
496.000000, 0.000001
497.000000, 0.000004
498.000000, -0.000002
499.000000, 0.000005
500.000000, -0.000005
501.000000, 0.000003
502.000000, 0.000000
503.000000, -0.000001
504.000000, 0.000003
505.000000, -0.000001
506.000000, 0.000004
507.000000, 0.000002
508.000000, -0.000002
509.000000, 0.000001
510.000000, 0.000005
511.000000, -0.000000
512.000000, 0.000005
513.000000, 0.000000
514.000000, 0.000008
515.000000, -0.000004
516.000000, 0.000000
517.000000, 0.000004
518.000000, 0.000003
519.000000, -0.000002
520.000000, 0.000004
521.000000, 0.000001
522.000000, 0.000004
523.000000, -0.000002
524.000000, 0.000007
525.000000, 0.000003
526.000000, -0.000001
527.000000, 0.000004
528.000000, -0.000002
529.000000, 0.000002
530.000000, 0.000000
531.000000, 0.000002
532.000000, 0.000008
533.000000, 0.000004
534.000000, -0.000003
535.000000, 0.000006
536.000000, -0.000000
537.000000, 0.000005
538.000000, 0.000006
539.000000, -0.000005
540.000000, 0.000002
541.000000, 0.000003
542.000000, 0.000010
543.000000, -0.000000
544.000000, 0.000001
545.000000, 0.000005
546.000000, 0.000004
547.000000, -0.000002
548.000000, 0.000004
549.000000, -0.000003
550.000000, -0.000002
551.000000, 0.000004
552.000000, 0.000003
553.000000, 0.000001
554.000000, -0.000003
555.000000, -0.000000
556.000000, 0.000009
557.000000, 0.000006
558.000000, 0.000003
559.000000, 0.000005
560.000000, 0.000001
561.000000, 0.000002
562.000000, 0.000000
563.000000, 0.000002
564.000000, 0.000002
565.000000, -0.000001
566.000000, 0.000004
567.000000, -0.000003
568.000000, 0.000009
569.000000, -0.000001
570.000000, 0.000002
571.000000, -0.000001
572.000000, -0.000000
573.000000, -0.000006
574.000000, -0.000008
575.000000, 0.000003
576.000000, 0.000002
577.000000, 0.000004
578.000000, 0.000001
579.000000, 0.000001
580.000000, -0.000008
581.000000, 0.000004
582.000000, 0.000008
583.000000, -0.000004
584.000000, -0.000006
585.000000, 0.000004
586.000000, 0.000001
587.000000, -0.000008
588.000000, 0.000000
589.000000, 0.000002
590.000000, -0.000007
591.000000, -0.000008
592.000000, 0.000004
593.000000, -0.000005
594.000000, 0.000002
595.000000, 0.000001
596.000000, 0.000009
597.000000, 0.000003
598.000000, -0.000006
599.000000, -0.000005
600.000000, 0.000006
601.000000, -0.000007
602.000000, 0.000002
603.000000, 0.000008
604.000000, 0.000007
605.000000, 0.000011
606.000000, 0.000010
607.000000, 0.000008
608.000000, 0.000015
609.000000, 0.000009
610.000000, 0.000010
611.000000, 0.000010
612.000000, 0.000027
613.000000, 0.000009
614.000000, 0.000005
615.000000, 0.000015
616.000000, 0.000016
617.000000, 0.000018
618.000000, 0.000029
619.000000, 0.000017
620.000000, 0.000012
621.000000, 0.000019
622.000000, 0.000024
623.000000, 0.000033
624.000000, 0.000032
625.000000, 0.000030
626.000000, 0.000049
627.000000, 0.000042
628.000000, 0.000039
629.000000, 0.000036
630.000000, 0.000034
631.000000, 0.000031
632.000000, 0.000023
633.000000, 0.000033
634.000000, 0.000030
635.000000, 0.000031
636.000000, 0.000036
637.000000, 0.000054
638.000000, 0.000051
639.000000, 0.000061
640.000000, 0.000087
641.000000, 0.000101
642.000000, 0.000107
643.000000, 0.000107
644.000000, 0.000092
645.000000, 0.000069
646.000000, 0.000064
647.000000, 0.000060
648.000000, 0.000055
649.000000, 0.000056
650.000000, 0.000059
651.000000, 0.000056
652.000000, 0.000067
653.000000, 0.000075
654.000000, 0.000097
655.000000, 0.000119
656.000000, 0.000157
657.000000, 0.000200
658.000000, 0.000230
659.000000, 0.000239
660.000000, 0.000223
661.000000, 0.000184
662.000000, 0.000167
663.000000, 0.000132
664.000000, 0.000115
665.000000, 0.000110
666.000000, 0.000102
667.000000, 0.000102
668.000000, 0.000115
669.000000, 0.000113
670.000000, 0.000140
671.000000, 0.000164
672.000000, 0.000213
673.000000, 0.000289
674.000000, 0.000373
675.000000, 0.000450
676.000000, 0.000488
677.000000, 0.000450
678.000000, 0.000393
679.000000, 0.000310
680.000000, 0.000268
681.000000, 0.000202
682.000000, 0.000175
683.000000, 0.000172
684.000000, 0.000147
685.000000, 0.000149
686.000000, 0.000166
687.000000, 0.000173
688.000000, 0.000203
689.000000, 0.000259
690.000000, 0.000332
691.000000, 0.000451
692.000000, 0.000646
693.000000, 0.000812
694.000000, 0.000915
695.000000, 0.000855
696.000000, 0.000716
697.000000, 0.000521
698.000000, 0.000398
699.000000, 0.000314
700.000000, 0.000251
701.000000, 0.000233
702.000000, 0.000208
703.000000, 0.000223
704.000000, 0.000233
705.000000, 0.000264
706.000000, 0.000330
707.000000, 0.000433
708.000000, 0.000621
709.000000, 0.000922
710.000000, 0.001324
711.000000, 0.001564
712.000000, 0.001430
713.000000, 0.001091
714.000000, 0.000771
715.000000, 0.000535
716.000000, 0.000411
717.000000, 0.000354
718.000000, 0.000334
719.000000, 0.000347
720.000000, 0.000412
721.000000, 0.000558
722.000000, 0.001007
723.000000, 0.002013
724.000000, 0.003144
725.000000, 0.003084
726.000000, 0.001851
727.000000, 0.000804
728.000000, 0.000374
729.000000, 0.000231
730.000000, 0.000178
731.000000, 0.000174
732.000000, 0.000219
733.000000, 0.000459
734.000000, 0.000982
735.000000, 0.001195
736.000000, 0.000692
737.000000, 0.000179
738.000000, 0.000032
739.000000, 0.000015
740.000000, 0.000016
741.000000, -0.000000
742.000000, 0.000002
743.000000, -0.000003
744.000000, 0.000009
745.000000, 0.000004
746.000000, 0.000008
747.000000, -0.000001
748.000000, -0.000001
749.000000, 0.000017
750.000000, -0.000001
751.000000, 0.000005
752.000000, 0.000000
753.000000, 0.000015
754.000000, -0.000000
755.000000, 0.000007
756.000000, 0.000001
757.000000, -0.000001
758.000000, 0.000016
759.000000, -0.000003
760.000000, -0.000003
761.000000, 0.000002
762.000000, 0.000000
763.000000, 0.000011
764.000000, -0.000002
765.000000, 0.000003
766.000000, 0.000001
767.000000, -0.000003
768.000000, 0.000017
769.000000, -0.000004
770.000000, 0.000002
771.000000, 0.000002
772.000000, 0.000015
773.000000, 0.000004
774.000000, 0.000010
775.000000, -0.000004
776.000000, 0.000001
777.000000, 0.000013
778.000000, -0.000002
779.000000, 0.000005
780.000000, 0.000005
781.000000, 0.000002
782.000000, 0.000010
783.000000, 0.000006
784.000000, -0.000000
785.000000, -0.000005
786.000000, 0.000001
787.000000, 0.000014
788.000000, 0.000005
789.000000, -0.000003
790.000000, 0.000001
791.000000, 0.000002
792.000000, 0.000022
793.000000, 0.000006
794.000000, 0.000003
795.000000, 0.000002
796.000000, 0.000003
797.000000, 0.000015
798.000000, 0.000011
799.000000, -0.000006
800.000000, -0.000354
801.000000, -0.000166
802.000000, -0.000467
803.000000, -0.000389
804.000000, -0.000092
805.000000, 0.000011
806.000000, 0.000171
807.000000, -0.000295
808.000000, -0.000590
809.000000, -0.000241
810.000000, -0.000279
811.000000, -0.000186
812.000000, -0.000191
813.000000, -0.000393
814.000000, -0.000099
815.000000, -0.000392
816.000000, -0.000143
817.000000, -0.000235
818.000000, -0.000225
819.000000, -0.000278
820.000000, -0.000214
821.000000, -0.000139
822.000000, -0.000384
823.000000, -0.000084
824.000000, -0.000056
825.000000, 0.000176
826.000000, 0.000083
827.000000, 0.000027
828.000000, -0.000108
829.000000, -0.000099
830.000000, 0.000297
831.000000, -0.000168
832.000000, 0.000178
833.000000, 0.000283
834.000000, -0.000257
835.000000, -0.000034
836.000000, 0.000117
837.000000, -0.000056
838.000000, -0.000231
839.000000, 0.000080
840.000000, 0.000029
841.000000, 0.000044
842.000000, 0.000126
843.000000, 0.000040
844.000000, -0.000102
845.000000, -0.000012
846.000000, 0.000146
847.000000, -0.000088
848.000000, 0.000083
849.000000, 0.000065
850.000000, 0.000068
851.000000, 0.000013
852.000000, 0.000114
853.000000, 0.000148
854.000000, 0.000020
855.000000, -0.000009
856.000000, 0.000065
857.000000, 0.000077
858.000000, 0.000078
859.000000, -0.000015
860.000000, 0.000139
861.000000, 0.000096
862.000000, 0.000044
863.000000, 0.000221
864.000000, 0.000100
865.000000, 0.000129
866.000000, 0.000166
867.000000, 0.000140
868.000000, 0.000318
869.000000, 0.000201
870.000000, 0.000263
871.000000, 0.000186
872.000000, 0.000145
873.000000, 0.000208
874.000000, 0.000171
875.000000, 0.000177
876.000000, 0.000253
877.000000, 0.000188
878.000000, 0.000220
879.000000, 0.000161
880.000000, 0.000279
881.000000, 0.000239
882.000000, 0.000243
883.000000, 0.000231
884.000000, 0.000326
885.000000, 0.000230
886.000000, 0.000284
887.000000, 0.000224
888.000000, 0.000269
889.000000, 0.000208
890.000000, 0.000210
891.000000, 0.000203
892.000000, 0.000096
893.000000, 0.000265
894.000000, 0.000213
895.000000, 0.000171
896.000000, 0.000175
897.000000, 0.000240
898.000000, 0.000167
899.000000, 0.000123
900.000000, 0.000206
901.000000, 0.000222
902.000000, 0.000130
903.000000, 0.000169
904.000000, 0.000175
905.000000, 0.000198
906.000000, 0.000185
907.000000, 0.000193
908.000000, 0.000160
909.000000, 0.000250
910.000000, 0.000218
911.000000, 0.000137
912.000000, 0.000222
913.000000, 0.000200
914.000000, 0.000267
915.000000, 0.000163
916.000000, 0.000179
917.000000, 0.000218
918.000000, 0.000143
919.000000, 0.000221
920.000000, 0.000202
921.000000, 0.000135
922.000000, 0.000197
923.000000, 0.000202
924.000000, 0.000185
925.000000, 0.000203
926.000000, 0.000191
927.000000, 0.000209
928.000000, 0.000217
929.000000, 0.000212
930.000000, 0.000175
931.000000, 0.000241
932.000000, 0.000133
933.000000, 0.000187
934.000000, 0.000225
935.000000, 0.000195
936.000000, 0.000320
937.000000, 0.000134
938.000000, 0.000272
939.000000, 0.000157
940.000000, 0.000274
941.000000, 0.000195
942.000000, 0.000202
943.000000, 0.000249
944.000000, 0.000188
945.000000, 0.000154
946.000000, 0.000114
947.000000, 0.000280
948.000000, 0.000256
949.000000, 0.000183
950.000000, 0.000176
951.000000, 0.000139
952.000000, 0.000167
953.000000, 0.000230
954.000000, 0.000189
955.000000, 0.000183
956.000000, 0.000192
957.000000, 0.000185
958.000000, 0.000247
959.000000, 0.000150
960.000000, 0.000207
961.000000, 0.000143
962.000000, 0.000220
963.000000, 0.000193
964.000000, 0.000247
965.000000, 0.000196
966.000000, 0.000245
967.000000, 0.000224
968.000000, 0.000258
969.000000, 0.000263
970.000000, 0.000181
971.000000, 0.000227
972.000000, 0.000202
973.000000, 0.000252
974.000000, 0.000194
975.000000, 0.000151
976.000000, 0.000170
977.000000, 0.000231
978.000000, 0.000223
979.000000, 0.000200
980.000000, 0.000213
981.000000, 0.000230
982.000000, 0.000300
983.000000, 0.000198
984.000000, 0.000208
985.000000, 0.000150
986.000000, 0.000241
987.000000, 0.000220
988.000000, 0.000202
989.000000, 0.000254
990.000000, 0.000158
991.000000, 0.000137
992.000000, 0.000187
993.000000, 0.000188
994.000000, 0.000228
995.000000, 0.000185
996.000000, 0.000275
997.000000, 0.000204
998.000000, 0.000171
999.000000, 0.000226
1000.000000, 0.000227
1001.000000, 0.000230
1002.000000, 0.000244
1003.000000, 0.000215
1004.000000, 0.000169
1005.000000, 0.000243
1006.000000, 0.000183
1007.000000, 0.000207
1008.000000, 0.000199
1009.000000, 0.000143
1010.000000, 0.000284
1011.000000, 0.000204
1012.000000, 0.000155
1013.000000, 0.000165
1014.000000, 0.000222
1015.000000, 0.000261
1016.000000, 0.000228
1017.000000, 0.000246
1018.000000, 0.000141
1019.000000, 0.000207
1020.000000, 0.000254
1021.000000, 0.000211
1022.000000, 0.000173
1023.000000, 0.000168
1024.000000, 0.000207
1025.000000, 0.000267
1026.000000, 0.000272
1027.000000, 0.000234
1028.000000, 0.000185
1029.000000, 0.000185
1030.000000, 0.000104
1031.000000, 0.000194
1032.000000, 0.000220
1033.000000, 0.000247
1034.000000, 0.000259
1035.000000, 0.000166
1036.000000, 0.000131
1037.000000, 0.000207
1038.000000, 0.000197
1039.000000, 0.000206
1040.000000, 0.000142
1041.000000, 0.000235
1042.000000, 0.000196
1043.000000, 0.000239
1044.000000, 0.000157
1045.000000, 0.000221
1046.000000, 0.000255
1047.000000, 0.000307
1048.000000, 0.000195
1049.000000, 0.000197
1050.000000, 0.000227
1051.000000, 0.000158
1052.000000, 0.000179
1053.000000, 0.000233
1054.000000, 0.000170
1055.000000, 0.000201
1056.000000, 0.000151
1057.000000, 0.000243
1058.000000, 0.000224
1059.000000, 0.000190
1060.000000, 0.000259
1061.000000, 0.000216
1062.000000, 0.000172
1063.000000, 0.000164
1064.000000, 0.000182
1065.000000, 0.000174
1066.000000, 0.000190
1067.000000, 0.000226
1068.000000, 0.000228
1069.000000, 0.000218
1070.000000, 0.000199
1071.000000, 0.000297
1072.000000, 0.000126
1073.000000, 0.000213
1074.000000, 0.000146
1075.000000, 0.000209
1076.000000, 0.000221
1077.000000, 0.000239
1078.000000, 0.000217
1079.000000, 0.000209
1080.000000, 0.000194
1081.000000, 0.000310
1082.000000, 0.000230
1083.000000, 0.000194
1084.000000, 0.000252
1085.000000, 0.000283
1086.000000, 0.000251
1087.000000, 0.000109
1088.000000, 0.000173
1089.000000, 0.000208
1090.000000, 0.000236
1091.000000, 0.000231
1092.000000, 0.000173
1093.000000, 0.000237
