# Wavelength  (nm), Transmission (%)
200.000000, 0.000474
201.000000, 0.000448
202.000000, 0.000448
203.000000, 0.000470
204.000000, 0.000460
205.000000, 0.000445
206.000000, 0.000453
207.000000, 0.000476
208.000000, 0.000459
209.000000, 0.000444
210.000000, 0.000459
211.000000, 0.000457
212.000000, 0.000452
213.000000, 0.000449
214.000000, 0.000439
215.000000, 0.000459
216.000000, 0.000448
217.000000, 0.000458
218.000000, 0.000461
219.000000, 0.000450
220.000000, 0.000468
221.000000, 0.000457
222.000000, 0.000450
223.000000, 0.000462
224.000000, 0.000459
225.000000, 0.000434
226.000000, 0.000455
227.000000, 0.000438
228.000000, 0.000428
229.000000, 0.000423
230.000000, 0.000423
231.000000, 0.000398
232.000000, 0.000406
233.000000, 0.000384
234.000000, 0.000378
235.000000, 0.000360
236.000000, 0.000344
237.000000, 0.000352
238.000000, 0.000344
239.000000, 0.000315
240.000000, 0.000307
241.000000, 0.000297
242.000000, 0.000297
243.000000, 0.000286
244.000000, 0.000282
245.000000, 0.000269
246.000000, 0.000268
247.000000, 0.000264
248.000000, 0.000256
249.000000, 0.000247
250.000000, 0.000260
251.000000, 0.000252
252.000000, 0.000243
253.000000, 0.000258
254.000000, 0.000240
255.000000, 0.000251
256.000000, 0.000238
257.000000, 0.000228
258.000000, 0.000245
259.000000, 0.000245
260.000000, 0.000253
261.000000, 0.000239
262.000000, 0.000241
263.000000, 0.000244
264.000000, 0.000251
265.000000, 0.000246
266.000000, 0.000242
267.000000, 0.000240
268.000000, 0.000245
269.000000, 0.000245
270.000000, 0.000250
271.000000, 0.000239
272.000000, 0.000247
273.000000, 0.000248
274.000000, 0.000238
275.000000, 0.000241
276.000000, 0.000256
277.000000, 0.000238
278.000000, 0.000222
279.000000, 0.000229
280.000000, 0.000242
281.000000, 0.000219
282.000000, 0.000228
283.000000, 0.000228
284.000000, 0.000209
285.000000, 0.000210
286.000000, 0.000221
287.000000, 0.000208
288.000000, 0.000200
289.000000, 0.000198
290.000000, 0.000193
291.000000, 0.000195
292.000000, 0.000170
293.000000, 0.000167
294.000000, 0.000180
295.000000, 0.000153
296.000000, 0.000141
297.000000, 0.000166
298.000000, 0.000130
299.000000, 0.000144
300.000000, 0.000113
301.000000, 0.000102
302.000000, 0.000101
303.000000, 0.000092
304.000000, 0.000097
305.000000, 0.000072
306.000000, 0.000078
307.000000, 0.000054
308.000000, 0.000043
309.000000, 0.000075
310.000000, 0.000054
311.000000, 0.000057
312.000000, 0.000041
313.000000, 0.000029
314.000000, 0.000046
315.000000, 0.000051
316.000000, 0.000032
317.000000, 0.000032
318.000000, 0.000024
319.000000, 0.000022
320.000000, 0.000038
321.000000, 0.000010
322.000000, 0.000015
323.000000, 0.000022
324.000000, 0.000010
325.000000, 0.000028
326.000000, 0.000019
327.000000, 0.000015
328.000000, 0.000010
329.000000, 0.000032
330.000000, 0.000017
331.000000, 0.000006
332.000000, 0.000029
333.000000, 0.000012
334.000000, 0.000008
335.000000, 0.000011
336.000000, 0.000012
337.000000, 0.000015
338.000000, 0.000022
339.000000, 0.000001
340.000000, 0.000008
341.000000, 0.000023
342.000000, 0.000006
343.000000, 0.000007
344.000000, 0.000004
345.000000, 0.000011
346.000000, 0.000012
347.000000, 0.000006
348.000000, 0.000005
349.000000, -0.000135
350.000000, 0.000008
351.000000, 0.000029
352.000000, 0.000029
353.000000, 0.000004
354.000000, 0.000025
355.000000, 0.000005
356.000000, 0.000029
357.000000, 0.000013
358.000000, 0.000007
359.000000, 0.000022
360.000000, 0.000008
361.000000, 0.000016
362.000000, 0.000017
363.000000, 0.000005
364.000000, 0.000026
365.000000, 0.000018
366.000000, 0.000018
367.000000, 0.000004
368.000000, 0.000018
369.000000, 0.000020
370.000000, 0.000020
371.000000, 0.000001
372.000000, 0.000032
373.000000, 0.000017
374.000000, 0.000021
375.000000, 0.000030
376.000000, 0.000031
377.000000, 0.000017
378.000000, 0.000024
379.000000, 0.000024
380.000000, 0.000034
381.000000, 0.000031
382.000000, 0.000030
383.000000, 0.000028
384.000000, 0.000041
385.000000, 0.000044
386.000000, 0.000046
387.000000, 0.000049
388.000000, 0.000051
389.000000, 0.000041
390.000000, 0.000060
391.000000, 0.000069
392.000000, 0.000077
393.000000, 0.000074
394.000000, 0.000049
395.000000, 0.000051
396.000000, 0.000062
397.000000, 0.000060
398.000000, 0.000079
399.000000, 0.000081
400.000000, 0.000090
401.000000, 0.000086
402.000000, 0.000067
403.000000, 0.000062
404.000000, 0.000070
405.000000, 0.000067
406.000000, 0.000093
407.000000, 0.000111
408.000000, 0.000101
409.000000, 0.000100
410.000000, 0.000072
411.000000, 0.000066
412.000000, 0.000062
413.000000, 0.000063
414.000000, 0.000092
415.000000, 0.000109
416.000000, 0.000128
417.000000, 0.000118
418.000000, 0.000102
419.000000, 0.000081
420.000000, 0.000067
421.000000, 0.000074
422.000000, 0.000082
423.000000, 0.000101
424.000000, 0.000111
425.000000, 0.000143
426.000000, 0.000121
427.000000, 0.000088
428.000000, 0.000079
429.000000, 0.000061
430.000000, 0.000073
431.000000, 0.000066
432.000000, 0.000099
433.000000, 0.000143
434.000000, 0.000156
435.000000, 0.000135
436.000000, 0.000090
437.000000, 0.000065
438.000000, 0.000058
439.000000, 0.000048
440.000000, 0.000047
441.000000, 0.000051
442.000000, 0.000078
443.000000, 0.000125
444.000000, 0.000159
445.000000, 0.000155
446.000000, 0.000109
447.000000, 0.000068
448.000000, 0.000045
449.000000, 0.000045
450.000000, 0.000040
451.000000, 0.000048
452.000000, 0.000064
453.000000, 0.000110
454.000000, 0.000163
455.000000, 0.000159
456.000000, 0.000110
457.000000, 0.000060
458.000000, 0.000034
459.000000, 0.000030
460.000000, 0.000029
461.000000, 0.000031
462.000000, 0.000046
463.000000, 0.000086
464.000000, 0.000150
465.000000, 0.000154
466.000000, 0.000098
467.000000, 0.000045
468.000000, 0.000023
469.000000, 0.000024
470.000000, 0.000024
471.000000, 0.000031
472.000000, 0.000050
473.000000, 0.000095
474.000000, 0.000123
475.000000, 0.000089
476.000000, 0.000034
477.000000, 0.000022
478.000000, 0.000013
479.000000, 0.000016
480.000000, 0.000016
481.000000, 0.000034
482.000000, 0.000057
483.000000, 0.000068
484.000000, 0.000028
485.000000, 0.000020
486.000000, 0.000005
487.000000, 0.000009
488.000000, 0.000021
489.000000, 0.000022
490.000000, 0.000014
491.000000, 0.000005
492.000000, 0.000005
493.000000, 0.000010
494.000000, 0.000009
495.000000, 0.000008
496.000000, 0.000007
497.000000, 0.000010
498.000000, 0.000002
499.000000, 0.000006
500.000000, 0.000004
501.000000, 0.000009
502.000000, 0.000001
503.000000, 0.000001
504.000000, 0.000006
505.000000, 0.000003
506.000000, 0.000009
507.000000, 0.000008
508.000000, 0.000004
509.000000, 0.000010
510.000000, 0.000003
511.000000, 0.000003
512.000000, 0.000006
513.000000, 0.000003
514.000000, 0.000010
515.000000, 0.000008
516.000000, 0.000006
517.000000, 0.000012
518.000000, 0.000003
519.000000, 0.000011
520.000000, 0.000007
521.000000, 0.000005
522.000000, 0.000008
523.000000, 0.000012
524.000000, 0.000010
525.000000, 0.000010
526.000000, 0.000004
527.000000, 0.000014
528.000000, 0.000005
529.000000, 0.000003
530.000000, 0.000007
531.000000, 0.000001
532.000000, 0.000011
533.000000, 0.000002
534.000000, 0.000003
535.000000, 0.000005
536.000000, 0.000003
537.000000, 0.000011
538.000000, 0.000004
539.000000, 0.000005
540.000000, 0.000006
541.000000, 0.000015
542.000000, 0.000002
543.000000, 0.000013
544.000000, 0.000004
545.000000, 0.000000
546.000000, 0.000008
547.000000, 0.000007
548.000000, 0.000012
549.000000, 0.000005
550.000000, 0.000008
551.000000, 0.000014
552.000000, 0.000002
553.000000, 0.000015
554.000000, 0.000005
555.000000, 0.000006
556.000000, 0.000007
557.000000, 0.000003
558.000000, 0.000013
559.000000, 0.000008
560.000000, 0.000014
561.000000, 0.000008
562.000000, 0.000007
563.000000, 0.000004
564.000000, 0.000013
565.000000, 0.000003
566.000000, 0.000012
567.000000, 0.000002
568.000000, 0.000011
569.000000, -0.000003
570.000000, 0.000007
571.000000, 0.000006
572.000000, 0.000012
573.000000, 0.000002
574.000000, -0.000004
575.000000, 0.000005
576.000000, 0.000008
577.000000, 0.000007
578.000000, 0.000005
579.000000, 0.000007
580.000000, -0.000004
581.000000, 0.000007
582.000000, 0.000015
583.000000, 0.000008
584.000000, -0.000004
585.000000, 0.000006
586.000000, 0.000007
587.000000, -0.000001
588.000000, 0.000008
589.000000, 0.000009
590.000000, -0.000001
591.000000, 0.000008
592.000000, 0.000012
593.000000, -0.000010
594.000000, -0.000001
595.000000, 0.000004
596.000000, 0.000006
597.000000, 0.000007
598.000000, -0.000003
599.000000, 0.000004
600.000000, 0.000011
601.000000, -0.000003
602.000000, 0.000006
603.000000, 0.000004
604.000000, 0.000006
605.000000, 0.000008
606.000000, 0.000004
607.000000, 0.000003
608.000000, 0.000014
609.000000, 0.000010
610.000000, 0.000011
611.000000, 0.000012
612.000000, 0.000008
613.000000, 0.000017
614.000000, 0.000011
615.000000, 0.000009
616.000000, 0.000013
617.000000, 0.000006
618.000000, 0.000021
619.000000, 0.000009
620.000000, 0.000008
621.000000, 0.000008
622.000000, 0.000008
623.000000, 0.000010
624.000000, 0.000008
625.000000, 0.000013
626.000000, 0.000011
627.000000, 0.000011
628.000000, 0.000012
629.000000, 0.000009
630.000000, 0.000006
631.000000, 0.000011
632.000000, 0.000011
633.000000, 0.000011
634.000000, 0.000015
635.000000, 0.000010
636.000000, 0.000013
637.000000, 0.000002
638.000000, 0.000014
639.000000, 0.000009
640.000000, 0.000017
641.000000, 0.000013
642.000000, 0.000013
643.000000, 0.000007
644.000000, 0.000006
645.000000, 0.000013
646.000000, 0.000015
647.000000, 0.000015
648.000000, 0.000011
649.000000, 0.000020
650.000000, 0.000010
651.000000, 0.000012
652.000000, 0.000020
653.000000, 0.000020
654.000000, 0.000020
655.000000, 0.000015
656.000000, 0.000010
657.000000, 0.000023
658.000000, 0.000022
659.000000, 0.000021
660.000000, 0.000027
661.000000, 0.000023
662.000000, 0.000034
663.000000, 0.000039
664.000000, 0.000038
665.000000, 0.000054
666.000000, 0.000063
667.000000, 0.000069
668.000000, 0.000091
669.000000, 0.000117
670.000000, 0.000143
671.000000, 0.000186
672.000000, 0.000249
673.000000, 0.000343
674.000000, 0.000429
675.000000, 0.000596
676.000000, 0.000806
677.000000, 0.001136
678.000000, 0.001576
679.000000, 0.002218
680.000000, 0.003185
681.000000, 0.004542
682.000000, 0.006650
683.000000, 0.009832
684.000000, 0.014699
685.000000, 0.022321
686.000000, 0.034466
687.000000, 0.054687
688.000000, 0.087587
689.000000, 0.143268
690.000000, 0.240069
691.000000, 0.411088
692.000000, 0.732414
693.000000, 1.347832
694.000000, 2.578052
695.000000, 5.161903
696.000000, 10.562737
697.000000, 21.421694
698.000000, 39.377415
699.000000, 60.914505
700.000000, 77.606842
701.000000, 84.515152
702.000000, 84.896591
703.000000, 83.719582
704.000000, 83.254700
705.000000, 83.754250
706.000000, 84.634537
707.000000, 85.435761
708.000000, 85.819717
709.000000, 85.817162
710.000000, 85.438919
711.000000, 84.873253
712.000000, 84.375114
713.000000, 84.034767
714.000000, 83.941284
715.000000, 84.146309
716.000000, 84.530525
717.000000, 85.040543
718.000000, 85.687973
719.000000, 86.238754
720.000000, 86.735367
721.000000, 87.099861
722.000000, 87.312881
723.000000, 87.419662
724.000000, 87.330261
725.000000, 87.086784
726.000000, 86.892326
727.000000, 86.636307
728.000000, 86.415154
729.000000, 86.244110
730.000000, 86.044380
731.000000, 86.001617
732.000000, 85.882385
733.000000, 85.923508
734.000000, 85.949455
735.000000, 85.963020
736.000000, 85.998253
737.000000, 85.993767
738.000000, 85.900063
739.000000, 85.831566
740.000000, 85.699959
741.000000, 85.575081
742.000000, 85.383835
743.000000, 85.241768
744.000000, 85.046921
745.000000, 84.879860
746.000000, 84.794868
747.000000, 84.727356
748.000000, 84.716057
749.000000, 84.794876
750.000000, 84.836784
751.000000, 85.046143
752.000000, 85.285942
753.000000, 85.521744
754.000000, 85.793892
755.000000, 86.070023
756.000000, 86.376419
757.000000, 86.680473
758.000000, 86.837662
759.000000, 87.031792
760.000000, 87.156174
761.000000, 87.170753
762.000000, 87.096878
763.000000, 86.993462
764.000000, 86.742279
765.000000, 86.476967
766.000000, 86.177696
767.000000, 85.756683
768.000000, 85.371094
769.000000, 84.906937
770.000000, 84.509750
771.000000, 84.080254
772.000000, 83.713737
773.000000, 83.379868
774.000000, 83.099625
775.000000, 82.941917
776.000000, 82.847031
777.000000, 82.769630
778.000000, 82.797394
779.000000, 82.850990
780.000000, 83.068802
781.000000, 83.320969
782.000000, 83.549644
783.000000, 83.882561
784.000000, 84.292358
785.000000, 84.644714
786.000000, 84.993843
787.000000, 85.374977
788.000000, 85.760223
789.000000, 86.089905
790.000000, 86.350281
791.000000, 86.597153
792.000000, 86.699409
793.000000, 86.808861
794.000000, 86.828163
795.000000, 86.710449
796.000000, 86.552551
797.000000, 86.406662
798.000000, 86.093834
799.000000, 85.734924
800.000000, 84.545853
801.000000, 84.216957
802.000000, 83.894745
803.000000, 83.530014
804.000000, 83.219978
805.000000, 82.958893
806.000000, 82.632004
807.000000, 82.483452
808.000000, 82.137505
809.000000, 82.037315
810.000000, 81.966881
811.000000, 81.836006
812.000000, 81.807312
813.000000, 81.858444
814.000000, 81.888084
815.000000, 82.084312
816.000000, 82.166489
817.000000, 82.411522
818.000000, 82.602730
819.000000, 82.844421
820.000000, 83.098221
821.000000, 83.424232
822.000000, 83.669579
823.000000, 83.923904
824.000000, 84.228264
825.000000, 84.496758
826.000000, 84.767273
827.000000, 84.954926
828.000000, 85.110245
829.000000, 85.249298
830.000000, 85.374321
831.000000, 85.498772
832.000000, 85.448761
833.000000, 85.441071
834.000000, 85.305275
835.000000, 85.159340
836.000000, 84.995613
837.000000, 84.860817
838.000000, 84.500290
839.000000, 84.406815
840.000000, 84.122574
841.000000, 83.862633
842.000000, 83.554077
843.000000, 83.169189
844.000000, 82.933655
845.000000, 82.739800
846.000000, 82.501106
847.000000, 82.243057
848.000000, 82.082245
849.000000, 81.876526
850.000000, 81.748360
851.000000, 81.538567
852.000000, 81.433411
853.000000, 81.348213
854.000000, 81.353714
855.000000, 81.490852
856.000000, 81.445168
857.000000, 81.514893
858.000000, 81.580444
859.000000, 81.716629
860.000000, 81.887123
861.000000, 82.114922
862.000000, 82.304504
863.000000, 82.485207
864.000000, 82.719955
865.000000, 82.895187
866.000000, 83.141418
867.000000, 83.258102
868.000000, 83.560204
869.000000, 83.733902
870.000000, 83.914009
871.000000, 84.196487
872.000000, 84.342384
873.000000, 84.449615
874.000000, 84.605400
875.000000, 84.771202
876.000000, 84.846367
877.000000, 84.877007
878.000000, 84.967499
879.000000, 84.999916
880.000000, 84.967087
881.000000, 84.884415
882.000000, 84.799965
883.000000, 84.807602
884.000000, 84.695724
885.000000, 84.627563
886.000000, 84.470276
887.000000, 84.400169
888.000000, 84.230041
889.000000, 84.073235
890.000000, 83.988579
891.000000, 83.868568
892.000000, 83.659401
893.000000, 83.683876
894.000000, 83.572334
895.000000, 83.308373
896.000000, 83.221443
897.000000, 83.174286
898.000000, 83.161255
899.000000, 83.179474
900.000000, 83.119385
901.000000, 83.063980
902.000000, 82.995949
903.000000, 83.070076
904.000000, 83.029533
905.000000, 83.045914
906.000000, 83.069481
907.000000, 83.225052
908.000000, 83.154167
909.000000, 83.273056
910.000000, 83.268211
911.000000, 83.399422
912.000000, 83.391739
913.000000, 83.620850
914.000000, 83.588684
915.000000, 83.607773
916.000000, 83.805420
917.000000, 83.880699
918.000000, 83.895470
919.000000, 83.884308
920.000000, 84.008644
921.000000, 84.194908
922.000000, 84.291878
923.000000, 84.252701
924.000000, 84.339935
925.000000, 84.334587
926.000000, 84.266815
927.000000, 84.368431
928.000000, 84.357544
929.000000, 84.412170
930.000000, 84.311790
931.000000, 84.286827
932.000000, 84.262367
933.000000, 84.144463
934.000000, 84.257133
935.000000, 84.164055
936.000000, 84.042671
937.000000, 84.010994
938.000000, 84.046432
939.000000, 84.028847
940.000000, 83.928192
941.000000, 83.822838
942.000000, 83.738197
943.000000, 83.879265
944.000000, 83.695427
945.000000, 83.656052
946.000000, 83.657005
947.000000, 83.620277
948.000000, 83.565575
949.000000, 83.414719
950.000000, 83.594635
951.000000, 83.527687
952.000000, 83.568130
953.000000, 83.565613
954.000000, 83.546936
955.000000, 83.579308
956.000000, 83.475243
957.000000, 83.619133
958.000000, 83.607857
959.000000, 83.640312
960.000000, 83.714432
961.000000, 83.674500
962.000000, 83.753632
963.000000, 83.831947
964.000000, 83.798965
965.000000, 83.889748
966.000000, 83.956734
967.000000, 83.854332
968.000000, 83.923981
969.000000, 83.916504
970.000000, 83.939331
971.000000, 83.988007
972.000000, 83.928017
973.000000, 83.995377
974.000000, 83.996239
975.000000, 83.989677
976.000000, 83.924698
977.000000, 83.861885
978.000000, 83.938217
979.000000, 83.960762
980.000000, 83.905869
981.000000, 83.861145
982.000000, 83.808510
983.000000, 83.651993
984.000000, 83.800690
985.000000, 83.622551
986.000000, 83.676872
987.000000, 83.585594
988.000000, 83.554558
989.000000, 83.473022
990.000000, 83.388229
991.000000, 83.402657
992.000000, 83.277260
993.000000, 83.294815
994.000000, 83.233459
995.000000, 83.161423
996.000000, 83.104973
997.000000, 83.102432
998.000000, 83.064178
999.000000, 82.989845
1000.000000, 82.986626
1001.000000, 82.855759
1002.000000, 82.928062
1003.000000, 82.836884
1004.000000, 82.855087
1005.000000, 82.845329
1006.000000, 82.891136
1007.000000, 82.800240
1008.000000, 82.848366
1009.000000, 82.830376
1010.000000, 82.907700
1011.000000, 82.833557
1012.000000, 82.768135
1013.000000, 82.901459
1014.000000, 82.921829
1015.000000, 82.918663
1016.000000, 83.101677
1017.000000, 82.984673
1018.000000, 83.108261
1019.000000, 83.136276
1020.000000, 83.174828
1021.000000, 83.247688
1022.000000, 83.295166
1023.000000, 83.315498
1024.000000, 83.280739
1025.000000, 83.547173
1026.000000, 83.437531
1027.000000, 83.421120
1028.000000, 83.496178
1029.000000, 83.493179
1030.000000, 83.589409
1031.000000, 83.629219
1032.000000, 83.662064
1033.000000, 83.623054
1034.000000, 83.766937
1035.000000, 83.824081
1036.000000, 83.692650
1037.000000, 83.735191
1038.000000, 83.767632
1039.000000, 83.705551
1040.000000, 83.708794
1041.000000, 83.724442
1042.000000, 83.696434
1043.000000, 83.668831
1044.000000, 83.653618
1045.000000, 83.626709
1046.000000, 83.651817
1047.000000, 83.531479
1048.000000, 83.474121
1049.000000, 83.464310
1050.000000, 83.501053
1051.000000, 83.403778
1052.000000, 83.339790
1053.000000, 83.215744
1054.000000, 83.202583
1055.000000, 83.168671
1056.000000, 83.136917
1057.000000, 83.090530
1058.000000, 83.004593
1059.000000, 82.939774
1060.000000, 82.888695
1061.000000, 82.931091
1062.000000, 82.845726
1063.000000, 82.820099
1064.000000, 82.777420
1065.000000, 82.768913
1066.000000, 82.793198
1067.000000, 82.606300
1068.000000, 82.625114
1069.000000, 82.632492
1070.000000, 82.520279
1071.000000, 82.584038
1072.000000, 82.577850
1073.000000, 82.530624
1074.000000, 82.624733
1075.000000, 82.521523
1076.000000, 82.672951
1077.000000, 82.542374
1078.000000, 82.621017
1079.000000, 82.620621
1080.000000, 82.589882
1081.000000, 82.702026
1082.000000, 82.746017
1083.000000, 82.726074
1084.000000, 82.741219
