# Wavelength  (nm), Transmission (%)
200.000000, 0.000084
201.000000, 0.000074
202.000000, 0.000059
203.000000, 0.000042
204.000000, 0.000028
205.000000, 0.000022
206.000000, 0.000034
207.000000, 0.000045
208.000000, 0.000037
209.000000, 0.000028
210.000000, 0.000016
211.000000, 0.000019
212.000000, 0.000016
213.000000, 0.000015
214.000000, 0.000011
215.000000, 0.000011
216.000000, 0.000010
217.000000, 0.000021
218.000000, 0.000014
219.000000, 0.000017
220.000000, 0.000014
221.000000, 0.000022
222.000000, 0.000028
223.000000, 0.000025
224.000000, 0.000032
225.000000, 0.000032
226.000000, 0.000027
227.000000, 0.000013
228.000000, 0.000007
229.000000, 0.000013
230.000000, 0.000016
231.000000, 0.000016
232.000000, 0.000010
233.000000, 0.000018
234.000000, 0.000022
235.000000, 0.000023
236.000000, 0.000013
237.000000, 0.000003
238.000000, 0.000011
239.000000, 0.000014
240.000000, 0.000018
241.000000, 0.000015
242.000000, 0.000014
243.000000, 0.000010
244.000000, 0.000013
245.000000, 0.000023
246.000000, 0.000024
247.000000, 0.000016
248.000000, 0.000007
249.000000, 0.000004
250.000000, 0.000004
251.000000, 0.000009
252.000000, 0.000018
253.000000, 0.000018
254.000000, 0.000024
255.000000, 0.000017
256.000000, 0.000020
257.000000, 0.000022
258.000000, 0.000020
259.000000, 0.000017
260.000000, 0.000017
261.000000, 0.000022
262.000000, 0.000025
263.000000, 0.000019
264.000000, 0.000016
265.000000, 0.000020
266.000000, 0.000014
267.000000, 0.000019
268.000000, 0.000029
269.000000, 0.000043
270.000000, 0.000039
271.000000, 0.000039
272.000000, 0.000028
273.000000, 0.000027
274.000000, 0.000016
275.000000, 0.000031
276.000000, 0.000030
277.000000, 0.000025
278.000000, 0.000010
279.000000, 0.000026
280.000000, 0.000040
281.000000, 0.000058
282.000000, 0.000050
283.000000, 0.000049
284.000000, 0.000045
285.000000, 0.000061
286.000000, 0.000070
287.000000, 0.000071
288.000000, 0.000046
289.000000, 0.000043
290.000000, 0.000024
291.000000, 0.000037
292.000000, 0.000028
293.000000, 0.000044
294.000000, 0.000034
295.000000, 0.000027
296.000000, 0.000017
297.000000, 0.000015
298.000000, 0.000022
299.000000, 0.000024
300.000000, 0.000038
301.000000, 0.000040
302.000000, 0.000033
303.000000, 0.000025
304.000000, 0.000035
305.000000, 0.000052
306.000000, 0.000057
307.000000, 0.000046
308.000000, 0.000035
309.000000, 0.000031
310.000000, 0.000030
311.000000, 0.000032
312.000000, 0.000041
313.000000, 0.000037
314.000000, 0.000030
315.000000, 0.000020
316.000000, 0.000043
317.000000, 0.000043
318.000000, 0.000042
319.000000, 0.000025
320.000000, 0.000036
321.000000, 0.000036
322.000000, 0.000034
323.000000, 0.000019
324.000000, 0.000022
325.000000, 0.000019
326.000000, 0.000035
327.000000, 0.000026
328.000000, 0.000025
329.000000, 0.000012
330.000000, 0.000014
331.000000, 0.000020
332.000000, 0.000016
333.000000, 0.000013
334.000000, 0.000003
335.000000, 0.000013
336.000000, 0.000021
337.000000, 0.000024
338.000000, 0.000021
339.000000, 0.000014
340.000000, 0.000010
341.000000, 0.000006
342.000000, 0.000006
343.000000, 0.000013
344.000000, 0.000018
345.000000, 0.000022
346.000000, 0.000016
347.000000, 0.000013
348.000000, 0.000013
349.000000, 0.000016
350.000000, 0.000013
351.000000, 0.000016
352.000000, 0.000021
353.000000, 0.000030
354.000000, 0.000024
355.000000, 0.000015
356.000000, 0.000005
357.000000, 0.000012
358.000000, 0.000032
359.000000, 0.000047
360.000000, 0.000067
361.000000, 0.000056
362.000000, 0.000069
363.000000, 0.000091
364.000000, 0.000150
365.000000, 0.000197
366.000000, 0.000240
367.000000, 0.000266
368.000000, 0.000315
369.000000, 0.000371
370.000000, 0.000468
371.000000, 0.000547
372.000000, 0.000610
373.000000, 0.000624
374.000000, 0.000628
375.000000, 0.000637
376.000000, 0.000672
377.000000, 0.000682
378.000000, 0.000719
379.000000, 0.000789
380.000000, 0.000973
381.000000, 0.001221
382.000000, 0.001544
383.000000, 0.001935
384.000000, 0.002404
385.000000, 0.002968
386.000000, 0.003639
387.000000, 0.004418
388.000000, 0.005317
389.000000, 0.006296
390.000000, 0.007366
391.000000, 0.008486
392.000000, 0.009658
393.000000, 0.010884
394.000000, 0.012154
395.000000, 0.013473
396.000000, 0.014785
397.000000, 0.016085
398.000000, 0.017416
399.000000, 0.018745
400.000000, 0.020040
401.000000, 0.021222
402.000000, 0.022300
403.000000, 0.023283
404.000000, 0.024156
405.000000, 0.024958
406.000000, 0.025722
407.000000, 0.026452
408.000000, 0.027050
409.000000, 0.027582
410.000000, 0.028101
411.000000, 0.028703
412.000000, 0.029358
413.000000, 0.030058
414.000000, 0.030743
415.000000, 0.031438
416.000000, 0.032189
417.000000, 0.033098
418.000000, 0.034109
419.000000, 0.035170
420.000000, 0.036201
421.000000, 0.037241
422.000000, 0.038281
423.000000, 0.039407
424.000000, 0.040589
425.000000, 0.041758
426.000000, 0.042765
427.000000, 0.043675
428.000000, 0.044540
429.000000, 0.045434
430.000000, 0.046232
431.000000, 0.046873
432.000000, 0.047268
433.000000, 0.047501
434.000000, 0.047620
435.000000, 0.047768
436.000000, 0.047891
437.000000, 0.047972
438.000000, 0.048016
439.000000, 0.048130
440.000000, 0.048456
441.000000, 0.049041
442.000000, 0.049830
443.000000, 0.050741
444.000000, 0.051738
445.000000, 0.052888
446.000000, 0.054258
447.000000, 0.055868
448.000000, 0.057676
449.000000, 0.059500
450.000000, 0.061223
451.000000, 0.062877
452.000000, 0.064566
453.000000, 0.066366
454.000000, 0.068183
455.000000, 0.069890
456.000000, 0.071423
457.000000, 0.072775
458.000000, 0.074095
459.000000, 0.075388
460.000000, 0.076627
461.000000, 0.077640
462.000000, 0.078299
463.000000, 0.078735
464.000000, 0.079055
465.000000, 0.079375
466.000000, 0.079613
467.000000, 0.079702
468.000000, 0.079597
469.000000, 0.079284
470.000000, 0.078926
471.000000, 0.078588
472.000000, 0.078260
473.000000, 0.077856
474.000000, 0.077341
475.000000, 0.076786
476.000000, 0.076275
477.000000, 0.075825
478.000000, 0.075358
479.000000, 0.074791
480.000000, 0.074095
481.000000, 0.073351
482.000000, 0.072654
483.000000, 0.072081
484.000000, 0.071611
485.000000, 0.071108
486.000000, 0.070578
487.000000, 0.070057
488.000000, 0.069502
489.000000, 0.068976
490.000000, 0.068486
491.000000, 0.068061
492.000000, 0.067642
493.000000, 0.067214
494.000000, 0.066900
495.000000, 0.066702
496.000000, 0.066544
497.000000, 0.066332
498.000000, 0.066017
499.000000, 0.065676
500.000000, 0.065363
501.000000, 0.065180
502.000000, 0.065080
503.000000, 0.064974
504.000000, 0.064809
505.000000, 0.064649
506.000000, 0.064559
507.000000, 0.064612
508.000000, 0.064763
509.000000, 0.064940
510.000000, 0.065089
511.000000, 0.065172
512.000000, 0.065258
513.000000, 0.065471
514.000000, 0.065794
515.000000, 0.066187
516.000000, 0.066494
517.000000, 0.066769
518.000000, 0.067128
519.000000, 0.067620
520.000000, 0.068223
521.000000, 0.068788
522.000000, 0.069258
523.000000, 0.069705
524.000000, 0.070240
525.000000, 0.070962
526.000000, 0.071699
527.000000, 0.072409
528.000000, 0.073058
529.000000, 0.073739
530.000000, 0.074608
531.000000, 0.075570
532.000000, 0.076528
533.000000, 0.077417
534.000000, 0.078219
535.000000, 0.078980
536.000000, 0.079738
537.000000, 0.080466
538.000000, 0.081204
539.000000, 0.081950
540.000000, 0.082677
541.000000, 0.083337
542.000000, 0.083833
543.000000, 0.084283
544.000000, 0.084769
545.000000, 0.085269
546.000000, 0.085755
547.000000, 0.086052
548.000000, 0.086166
549.000000, 0.086213
550.000000, 0.086245
551.000000, 0.086331
552.000000, 0.086400
553.000000, 0.086336
554.000000, 0.086030
555.000000, 0.085585
556.000000, 0.085287
557.000000, 0.085029
558.000000, 0.084654
559.000000, 0.084090
560.000000, 0.083525
561.000000, 0.082949
562.000000, 0.082408
563.000000, 0.081815
564.000000, 0.081172
565.000000, 0.080514
566.000000, 0.079867
567.000000, 0.079172
568.000000, 0.078443
569.000000, 0.077662
570.000000, 0.076973
571.000000, 0.076330
572.000000, 0.075662
573.000000, 0.074967
574.000000, 0.074208
575.000000, 0.073522
576.000000, 0.072934
577.000000, 0.072356
578.000000, 0.071761
579.000000, 0.071106
580.000000, 0.070600
581.000000, 0.070225
582.000000, 0.069887
583.000000, 0.069506
584.000000, 0.069129
585.000000, 0.068922
586.000000, 0.068813
587.000000, 0.068837
588.000000, 0.068927
589.000000, 0.068997
590.000000, 0.069088
591.000000, 0.069258
592.000000, 0.069632
593.000000, 0.070051
594.000000, 0.070423
595.000000, 0.070777
596.000000, 0.071313
597.000000, 0.071981
598.000000, 0.072778
599.000000, 0.073540
600.000000, 0.074336
601.000000, 0.075045
602.000000, 0.075741
603.000000, 0.076451
604.000000, 0.077259
605.000000, 0.078128
606.000000, 0.079110
607.000000, 0.080038
608.000000, 0.080991
609.000000, 0.081886
610.000000, 0.082903
611.000000, 0.083834
612.000000, 0.084880
613.000000, 0.085889
614.000000, 0.086921
615.000000, 0.087863
616.000000, 0.088905
617.000000, 0.090006
618.000000, 0.091131
619.000000, 0.092082
620.000000, 0.092939
621.000000, 0.093695
622.000000, 0.094501
623.000000, 0.095401
624.000000, 0.096343
625.000000, 0.097365
626.000000, 0.098174
627.000000, 0.098956
628.000000, 0.099567
629.000000, 0.100177
630.000000, 0.100791
631.000000, 0.101484
632.000000, 0.102132
633.000000, 0.102612
634.000000, 0.102957
635.000000, 0.103483
636.000000, 0.104214
637.000000, 0.104870
638.000000, 0.105428
639.000000, 0.105886
640.000000, 0.106555
641.000000, 0.107261
642.000000, 0.108119
643.000000, 0.108957
644.000000, 0.109936
645.000000, 0.110767
646.000000, 0.111669
647.000000, 0.112635
648.000000, 0.113711
649.000000, 0.114910
650.000000, 0.116264
651.000000, 0.117731
652.000000, 0.119086
653.000000, 0.120396
654.000000, 0.122052
655.000000, 0.124170
656.000000, 0.126244
657.000000, 0.128170
658.000000, 0.130116
659.000000, 0.132441
660.000000, 0.135213
661.000000, 0.138213
662.000000, 0.141221
663.000000, 0.144227
664.000000, 0.147484
665.000000, 0.151063
666.000000, 0.155139
667.000000, 0.159263
668.000000, 0.164035
669.000000, 0.168653
670.000000, 0.173613
671.000000, 0.178818
672.000000, 0.184641
673.000000, 0.190666
674.000000, 0.196939
675.000000, 0.203563
676.000000, 0.210730
677.000000, 0.218341
678.000000, 0.226513
679.000000, 0.235330
680.000000, 0.243976
681.000000, 0.252615
682.000000, 0.261585
683.000000, 0.271000
684.000000, 0.281385
685.000000, 0.291443
686.000000, 0.302211
687.000000, 0.312286
688.000000, 0.323263
689.000000, 0.334344
690.000000, 0.346162
691.000000, 0.357635
692.000000, 0.368904
693.000000, 0.380026
694.000000, 0.390808
695.000000, 0.401804
696.000000, 0.412792
697.000000, 0.423775
698.000000, 0.434941
699.000000, 0.445912
700.000000, 0.457097
701.000000, 0.467070
702.000000, 0.478045
703.000000, 0.488034
704.000000, 0.498527
705.000000, 0.507595
706.000000, 0.517303
707.000000, 0.527195
708.000000, 0.536952
709.000000, 0.546588
710.000000, 0.554722
711.000000, 0.562569
712.000000, 0.570632
713.000000, 0.579194
714.000000, 0.587585
715.000000, 0.595831
716.000000, 0.603642
717.000000, 0.611730
718.000000, 0.617933
719.000000, 0.626052
720.000000, 0.632820
721.000000, 0.640653
722.000000, 0.646368
723.000000, 0.651803
724.000000, 0.657836
725.000000, 0.664036
726.000000, 0.670736
727.000000, 0.676546
728.000000, 0.681397
729.000000, 0.687992
730.000000, 0.692562
731.000000, 0.698706
732.000000, 0.703904
733.000000, 0.709232
734.000000, 0.713737
735.000000, 0.717962
736.000000, 0.722484
737.000000, 0.727479
738.000000, 0.731959
739.000000, 0.736419
740.000000, 0.739653
741.000000, 0.742998
742.000000, 0.747307
743.000000, 0.751467
744.000000, 0.756045
745.000000, 0.759069
746.000000, 0.762744
747.000000, 0.765100
748.000000, 0.769067
749.000000, 0.772752
750.000000, 0.776704
751.000000, 0.779864
752.000000, 0.782798
753.000000, 0.785884
754.000000, 0.789457
755.000000, 0.792762
756.000000, 0.796756
757.000000, 0.798699
758.000000, 0.800748
759.000000, 0.801585
760.000000, 0.804926
761.000000, 0.807469
762.000000, 0.810650
763.000000, 0.811950
764.000000, 0.814137
765.000000, 0.816270
766.000000, 0.819538
767.000000, 0.821527
768.000000, 0.824285
769.000000, 0.825285
770.000000, 0.826975
771.000000, 0.827472
772.000000, 0.828990
773.000000, 0.830596
774.000000, 0.832745
775.000000, 0.834003
776.000000, 0.835352
777.000000, 0.836652
778.000000, 0.838751
779.000000, 0.839540
780.000000, 0.841132
781.000000, 0.843053
782.000000, 0.844301
783.000000, 0.843581
784.000000, 0.843329
785.000000, 0.844217
786.000000, 0.844991
787.000000, 0.845737
788.000000, 0.847181
789.000000, 0.848788
790.000000, 0.849369
791.000000, 0.849743
792.000000, 0.849705
793.000000, 0.850394
794.000000, 0.850581
795.000000, 0.850546
796.000000, 0.849996
797.000000, 0.850516
798.000000, 0.851114
799.000000, 0.851890
800.000000, 0.851996
801.000000, 0.850478
802.000000, 0.849440
803.000000, 0.848482
804.000000, 0.849131
805.000000, 0.849454
806.000000, 0.849568
807.000000, 0.849031
808.000000, 0.848295
809.000000, 0.847396
810.000000, 0.847602
811.000000, 0.848298
812.000000, 0.848198
813.000000, 0.847042
814.000000, 0.846265
815.000000, 0.846269
816.000000, 0.845754
817.000000, 0.844324
818.000000, 0.842970
819.000000, 0.842985
820.000000, 0.841433
821.000000, 0.840400
822.000000, 0.838672
823.000000, 0.838240
824.000000, 0.837859
825.000000, 0.838553
826.000000, 0.837884
827.000000, 0.836700
828.000000, 0.834769
829.000000, 0.834051
830.000000, 0.832619
831.000000, 0.832351
832.000000, 0.831974
833.000000, 0.831540
834.000000, 0.830361
835.000000, 0.829244
836.000000, 0.827647
837.000000, 0.826189
838.000000, 0.824838
839.000000, 0.824502
840.000000, 0.823180
841.000000, 0.821600
842.000000, 0.820181
843.000000, 0.819331
844.000000, 0.818776
845.000000, 0.817205
846.000000, 0.814832
847.000000, 0.811690
848.000000, 0.809429
849.000000, 0.809112
850.000000, 0.809532
851.000000, 0.809108
852.000000, 0.807418
853.000000, 0.805435
854.000000, 0.802419
855.000000, 0.799863
856.000000, 0.797722
857.000000, 0.796947
858.000000, 0.794149
859.000000, 0.789759
860.000000, 0.782240
861.000000, 0.769902
862.000000, 0.758688
863.000000, 0.752653
864.000000, 0.757337
865.000000, 0.766518
866.000000, 0.775995
867.000000, 0.774372
868.000000, 0.762789
869.000000, 0.748786
870.000000, 0.740963
871.000000, 0.738241
872.000000, 0.738389
873.000000, 0.742183
874.000000, 0.746860
875.000000, 0.748774
876.000000, 0.746724
877.000000, 0.741265
878.000000, 0.734218
879.000000, 0.729141
880.000000, 0.731148
881.000000, 0.736480
882.000000, 0.740645
883.000000, 0.736144
884.000000, 0.725111
885.000000, 0.715421
886.000000, 0.717288
887.000000, 0.727170
888.000000, 0.729890
889.000000, 0.720522
890.000000, 0.707535
891.000000, 0.702140
892.000000, 0.706246
893.000000, 0.713524
894.000000, 0.718384
895.000000, 0.713049
896.000000, 0.701110
897.000000, 0.691346
898.000000, 0.689794
899.000000, 0.695844
900.000000, 0.701280
901.000000, 0.697928
902.000000, 0.685709
903.000000, 0.675781
904.000000, 0.679117
905.000000, 0.689662
906.000000, 0.692245
907.000000, 0.685892
908.000000, 0.680854
909.000000, 0.678682
910.000000, 0.673047
911.000000, 0.664402
912.000000, 0.662245
913.000000, 0.663636
914.000000, 0.661223
915.000000, 0.654606
916.000000, 0.652798
917.000000, 0.659834
918.000000, 0.669576
919.000000, 0.672560
920.000000, 0.663162
921.000000, 0.650258
922.000000, 0.646317
923.000000, 0.652871
924.000000, 0.657090
925.000000, 0.648485
926.000000, 0.635951
927.000000, 0.633255
928.000000, 0.642477
929.000000, 0.649208
930.000000, 0.640737
931.000000, 0.623335
932.000000, 0.612935
933.000000, 0.617350
934.000000, 0.631384
935.000000, 0.637683
936.000000, 0.631954
937.000000, 0.622353
938.000000, 0.619848
939.000000, 0.622064
940.000000, 0.624093
941.000000, 0.621452
942.000000, 0.614134
943.000000, 0.607485
944.000000, 0.606750
945.000000, 0.610795
946.000000, 0.614882
947.000000, 0.612952
948.000000, 0.605690
949.000000, 0.599654
950.000000, 0.600383
951.000000, 0.603561
952.000000, 0.600040
953.000000, 0.593078
954.000000, 0.589993
955.000000, 0.592948
956.000000, 0.595131
957.000000, 0.597246
958.000000, 0.594907
959.000000, 0.589708
960.000000, 0.585652
961.000000, 0.584542
962.000000, 0.588723
963.000000, 0.590989
964.000000, 0.589718
965.000000, 0.588843
966.000000, 0.587904
967.000000, 0.584983
968.000000, 0.575594
969.000000, 0.569954
970.000000, 0.570663
971.000000, 0.577974
972.000000, 0.582325
973.000000, 0.581816
974.000000, 0.577349
975.000000, 0.575681
976.000000, 0.575443
977.000000, 0.573863
978.000000, 0.572525
979.000000, 0.572017
980.000000, 0.568895
981.000000, 0.561325
982.000000, 0.558387
983.000000, 0.559791
984.000000, 0.562232
985.000000, 0.567199
986.000000, 0.573078
987.000000, 0.575023
988.000000, 0.566833
989.000000, 0.556720
990.000000, 0.556185
991.000000, 0.558999
992.000000, 0.559587
993.000000, 0.551672
994.000000, 0.543514
995.000000, 0.545073
996.000000, 0.549923
997.000000, 0.554710
998.000000, 0.552752
999.000000, 0.554805
1000.000000, 0.556883
1001.000000, 0.555965
1002.000000, 0.548364
1003.000000, 0.542040
1004.000000, 0.546234
1005.000000, 0.553493
1006.000000, 0.558445
1007.000000, 0.552592
1008.000000, 0.544158
1009.000000, 0.539726
1010.000000, 0.542824
1011.000000, 0.548335
1012.000000, 0.551813
1013.000000, 0.548133
1014.000000, 0.541161
1015.000000, 0.535584
1016.000000, 0.538771
1017.000000, 0.547139
1018.000000, 0.550526
1019.000000, 0.546872
1020.000000, 0.537535
1021.000000, 0.532585
1022.000000, 0.535193
1023.000000, 0.542603
1024.000000, 0.547588
1025.000000, 0.543543
1026.000000, 0.538331
1027.000000, 0.535317
1028.000000, 0.539938
1029.000000, 0.545063
1030.000000, 0.547997
1031.000000, 0.544380
1032.000000, 0.537535
1033.000000, 0.530356
1034.000000, 0.524623
1035.000000, 0.528774
1036.000000, 0.535942
1037.000000, 0.542225
1038.000000, 0.539890
1039.000000, 0.533889
1040.000000, 0.529604
1041.000000, 0.532820
1042.000000, 0.539677
1043.000000, 0.544706
1044.000000, 0.542491
1045.000000, 0.537381
1046.000000, 0.533646
1047.000000, 0.527303
1048.000000, 0.523802
1049.000000, 0.530043
1050.000000, 0.539599
1051.000000, 0.547974
1052.000000, 0.545195
1053.000000, 0.540653
1054.000000, 0.534410
1055.000000, 0.529338
1056.000000, 0.525588
1057.000000, 0.534277
1058.000000, 0.543620
1059.000000, 0.552989
1060.000000, 0.552438
1061.000000, 0.549474
1062.000000, 0.545419
1063.000000, 0.541389
1064.000000, 0.536562
1065.000000, 0.530954
1066.000000, 0.523415
1067.000000, 0.521751
1068.000000, 0.532125
1069.000000, 0.544838
1070.000000, 0.553500
1071.000000, 0.553818
1072.000000, 0.553220
1073.000000, 0.551024
1074.000000, 0.545279
1075.000000, 0.537494
1076.000000, 0.532603
1077.000000, 0.540956
1078.000000, 0.551978
1079.000000, 0.560167
1080.000000, 0.555333
1081.000000, 0.549056
1082.000000, 0.543298
1083.000000, 0.538911
1084.000000, 0.545108
1085.000000, 0.554289
1086.000000, 0.562031
1087.000000, 0.560908
1088.000000, 0.557038
1089.000000, 0.552766
1090.000000, 0.547375
1091.000000, 0.544369
1092.000000, 0.555049
1093.000000, 0.565574
1094.000000, 0.575672
1095.000000, 0.572183
1096.000000, 0.567151
1097.000000, 0.559641
1098.000000, 0.554815
1099.000000, 0.550871
1100.000000, 0.552026
1101.000000, 0.562987
