# Wavelength  (nm), Transmission (%)
200.000000, 0.457092
201.000000, 0.453955
202.000000, 0.332912
203.000000, 0.278130
204.000000, 0.231020
205.000000, 0.160541
206.000000, 0.156945
207.000000, 0.109615
208.000000, 0.097976
209.000000, 0.077385
210.000000, 0.086631
211.000000, 0.051251
212.000000, 0.041035
213.000000, 0.049238
214.000000, 0.036333
215.000000, 0.030433
216.000000, 0.026399
217.000000, 0.025998
218.000000, 0.027546
219.000000, 0.023852
220.000000, 0.015161
221.000000, 0.015307
222.000000, 0.014974
223.000000, 0.009929
224.000000, 0.004824
225.000000, 0.008951
226.000000, 0.004646
227.000000, 0.010471
228.000000, 0.011667
229.000000, 0.006465
230.000000, 0.006077
231.000000, 0.008825
232.000000, 0.000950
233.000000, 0.004767
234.000000, 0.007548
235.000000, 0.004373
236.000000, 0.004820
237.000000, 0.008925
238.000000, 0.002160
239.000000, 0.002604
240.000000, 0.004787
241.000000, 0.000328
242.000000, 0.004376
243.000000, 0.004502
244.000000, 0.001653
245.000000, 0.001104
246.000000, 0.004093
247.000000, 0.004655
248.000000, 0.001332
249.000000, 0.001446
250.000000, 0.000223
251.000000, 0.000893
252.000000, 0.005140
253.000000, 0.001230
254.000000, 0.001567
255.000000, 0.002578
256.000000, 0.000785
257.000000, 0.001235
258.000000, 0.004156
259.000000, 0.000225
260.000000, 0.001800
261.000000, 0.000338
262.000000, 0.000564
263.000000, 0.001852
264.000000, 0.004516
265.000000, 0.002939
266.000000, 0.000906
267.000000, 0.003399
268.000000, 0.000113
269.000000, 0.001816
270.000000, 0.004884
271.000000, 0.005113
272.000000, 0.001593
273.000000, 0.002163
274.000000, 0.001252
275.000000, 0.001481
276.000000, 0.002164
277.000000, 0.000912
278.000000, 0.002052
279.000000, 0.001710
280.000000, 0.000912
281.000000, 0.002736
282.000000, 0.002850
283.000000, 0.004332
284.000000, 0.002735
285.000000, 0.002393
286.000000, 0.001710
287.000000, 0.000342
288.000000, 0.002394
289.000000, 0.001254
290.000000, 0.002507
291.000000, 0.002622
292.000000, 0.001824
293.000000, 0.003988
294.000000, 0.006037
295.000000, 0.005925
296.000000, 0.004215
297.000000, 0.000342
298.000000, 0.000114
299.000000, 0.002164
300.000000, 0.001935
301.000000, 0.003643
302.000000, 0.003870
303.000000, 0.004554
304.000000, 0.002731
305.000000, 0.004893
306.000000, 0.006825
307.000000, 0.003298
308.000000, 0.002161
309.000000, 0.003979
310.000000, 0.005115
311.000000, 0.013293
312.000000, 0.027379
313.000000, 0.070061
314.000000, 0.139545
315.000000, 0.168974
316.000000, 0.118730
317.000000, 0.044814
318.000000, 0.015528
319.000000, 0.014859
320.000000, 0.008328
321.000000, 0.010242
322.000000, 0.007651
323.000000, 0.014170
324.000000, 0.014726
325.000000, 0.012701
326.000000, 0.005282
327.000000, 0.012473
328.000000, 0.023590
329.000000, 0.072851
330.000000, 0.118400
331.000000, 0.135653
332.000000, 0.142820
333.000000, 0.116004
334.000000, 0.053711
335.000000, 0.034063
336.000000, 0.026672
337.000000, 0.034164
338.000000, 0.101583
339.000000, 0.236158
340.000000, 0.388160
341.000000, 0.644352
342.000000, 0.729394
343.000000, 0.427867
344.000000, 0.111088
345.000000, 0.069512
346.000000, 0.141754
347.000000, 0.217919
348.000000, 0.409184
349.000000, 1.020836
350.000000, 1.955846
351.000000, 2.606439
352.000000, 2.855165
353.000000, 2.915616
354.000000, 2.390642
355.000000, 1.351249
356.000000, 0.484536
357.000000, 0.101855
358.000000, 0.023700
359.000000, 0.014459
360.000000, 0.005893
361.000000, 0.002445
362.000000, 0.004556
363.000000, 0.006446
364.000000, 0.004887
365.000000, 0.003442
366.000000, 0.003773
367.000000, 0.003217
368.000000, 0.005100
369.000000, 0.005764
370.000000, 0.004322
371.000000, 0.002879
372.000000, 0.004648
373.000000, 0.006084
374.000000, 0.010062
375.000000, 0.013927
376.000000, 0.012699
377.000000, 0.007397
378.000000, 0.010388
379.000000, 0.011801
380.000000, 0.010805
381.000000, 0.009477
382.000000, 0.002424
383.000000, 0.004295
384.000000, 0.008037
385.000000, 0.018166
386.000000, 0.040817
387.000000, 0.220312
388.000000, 2.637198
389.000000, 15.204396
390.000000, 43.370881
391.000000, 74.743608
392.000000, 92.131062
393.000000, 96.710887
394.000000, 97.581193
395.000000, 98.003590
396.000000, 98.316093
397.000000, 98.537986
398.000000, 98.603245
399.000000, 98.609491
400.000000, 98.550769
401.000000, 98.413699
402.000000, 97.996316
403.000000, 97.512546
404.000000, 97.309189
405.000000, 97.396061
406.000000, 97.562688
407.000000, 97.787117
408.000000, 97.903225
409.000000, 97.985834
410.000000, 98.077880
411.000000, 98.095966
412.000000, 97.942647
413.000000, 97.671388
414.000000, 97.471468
415.000000, 97.379926
416.000000, 97.503424
417.000000, 97.945442
418.000000, 98.341610
419.000000, 98.528307
420.000000, 98.689108
421.000000, 98.750434
422.000000, 98.720991
423.000000, 98.696420
424.000000, 98.648226
425.000000, 98.585910
426.000000, 98.537150
427.000000, 98.488465
428.000000, 98.548413
429.000000, 98.585074
430.000000, 98.512871
431.000000, 98.461813
432.000000, 98.395257
433.000000, 98.251641
434.000000, 98.179966
435.000000, 98.201720
436.000000, 98.247527
437.000000, 98.401115
438.000000, 98.594506
439.000000, 98.682398
440.000000, 98.661336
441.000000, 98.574026
442.000000, 98.387511
443.000000, 98.225967
444.000000, 98.273081
445.000000, 98.355315
446.000000, 98.261450
447.000000, 98.035418
448.000000, 97.825421
449.000000, 97.740228
450.000000, 97.702797
451.000000, 97.814131
452.000000, 98.229647
453.000000, 98.663781
454.000000, 98.813605
455.000000, 98.738239
456.000000, 98.704701
457.000000, 98.762631
458.000000, 98.829428
459.000000, 98.959206
460.000000, 99.041062
461.000000, 99.017590
462.000000, 98.998321
463.000000, 99.006853
464.000000, 98.956394
465.000000, 98.886050
466.000000, 98.784865
467.000000, 98.721859
468.000000, 98.785474
469.000000, 98.827045
470.000000, 98.780466
471.000000, 98.751515
472.000000, 98.697415
473.000000, 98.589086
474.000000, 98.550161
475.000000, 98.551667
476.000000, 98.425688
477.000000, 98.199159
478.000000, 97.953642
479.000000, 97.855120
480.000000, 98.023291
481.000000, 98.322661
482.000000, 98.422560
483.000000, 98.361129
484.000000, 98.440043
485.000000, 98.618751
486.000000, 98.767732
487.000000, 98.802633
488.000000, 98.695612
489.000000, 98.528741
490.000000, 98.337666
491.000000, 98.181447
492.000000, 98.026799
493.000000, 97.757114
494.000000, 97.443525
495.000000, 97.330259
496.000000, 97.280133
497.000000, 93.903269
498.000000, 77.272363
499.000000, 44.674334
500.000000, 14.473191
501.000000, 1.836066
502.000000, 0.074896
503.000000, 0.022972
504.000000, 0.000716
505.000000, 0.000340
506.000000, 0.000278
507.000000, 0.000215
508.000000, 0.000152
509.000000, 0.000287
510.000000, 0.000591
511.000000, 0.000725
512.000000, 0.000600
513.000000, 0.000555
514.000000, 0.000474
515.000000, 0.000376
516.000000, 0.000501
517.000000, 0.000492
518.000000, 0.000331
519.000000, 0.000411
520.000000, 0.000304
521.000000, 0.000179
522.000000, 0.000527
523.000000, 0.000536
524.000000, 0.000339
525.000000, 0.000321
526.000000, 0.000223
527.000000, 0.000143
528.000000, 0.000517
529.000000, 0.000607
530.000000, 0.000437
531.000000, 0.000374
532.000000, 0.000330
533.000000, 0.000321
534.000000, 0.000356
535.000000, 0.000267
536.000000, 0.000303
537.000000, 0.000347
538.000000, 0.000267
539.000000, 0.000214
540.000000, 0.000276
541.000000, 0.000294
542.000000, 0.000329
543.000000, 0.000312
544.000000, 0.000214
545.000000, 0.000223
546.000000, 0.000312
547.000000, 0.000409
548.000000, 0.000374
549.000000, 0.000365
550.000000, 0.000276
551.000000, 0.000267
552.000000, 0.000320
553.000000, 0.000311
554.000000, 0.000338
555.000000, 0.000391
556.000000, 0.000276
557.000000, 0.000400
558.000000, 0.000347
559.000000, 0.000249
560.000000, 0.000213
561.000000, 0.000382
562.000000, 0.000383
563.000000, 0.000365
564.000000, 0.000392
565.000000, 0.000347
566.000000, 0.000276
567.000000, 0.000240
568.000000, 0.000320
569.000000, 0.000347
570.000000, 0.000365
571.000000, 0.000383
572.000000, 0.000329
573.000000, 0.000196
574.000000, 0.000214
575.000000, 0.000347
576.000000, 0.000302
577.000000, 0.000249
578.000000, 0.000347
579.000000, 0.000267
580.000000, 0.000222
581.000000, 0.000436
582.000000, 0.000400
583.000000, 0.000445
584.000000, 0.000356
585.000000, 0.000213
586.000000, 0.000133
587.000000, 0.000444
588.000000, 0.000284
589.000000, 0.000418
590.000000, 0.000418
591.000000, 0.000311
592.000000, 0.000222
593.000000, 0.000462
594.000000, 0.000204
595.000000, 0.000240
596.000000, 0.000284
597.000000, 0.000204
598.000000, 0.000098
599.000000, 0.000550
600.000000, 0.000213
601.000000, 0.000337
602.000000, 0.000293
603.000000, 0.000275
604.000000, 0.000222
605.000000, 0.000524
606.000000, 0.000213
607.000000, 0.000364
608.000000, 0.000284
609.000000, 0.000231
610.000000, 0.000142
611.000000, 0.000550
612.000000, 0.000222
613.000000, 0.000444
614.000000, 0.000426
615.000000, 0.000408
616.000000, 0.000240
617.000000, 0.000506
618.000000, 0.000204
619.000000, 0.000319
620.000000, 0.000453
621.000000, 0.000319
622.000000, 0.000213
623.000000, 0.000647
624.000000, 0.000293
625.000000, 0.000266
626.000000, 0.000488
627.000000, 0.000222
628.000000, 0.000230
629.000000, 0.000585
630.000000, 0.000301
631.000000, 0.000399
632.000000, 0.000470
633.000000, 0.000168
634.000000, 0.000221
635.000000, 0.000461
636.000000, 0.000301
637.000000, 0.000336
638.000000, 0.000328
639.000000, 0.000097
640.000000, 0.000363
641.000000, 0.000416
642.000000, 0.000310
643.000000, 0.000212
644.000000, 0.000504
645.000000, 0.000221
646.000000, 0.000416
647.000000, 0.000495
648.000000, 0.000230
649.000000, 0.000230
650.000000, 0.000451
651.000000, 0.000318
652.000000, 0.000539
653.000000, 0.000451
654.000000, 0.000230
655.000000, 0.000150
656.000000, 0.000345
657.000000, 0.000221
658.000000, 0.000327
659.000000, 0.000583
660.000000, 0.000433
661.000000, 0.000194
662.000000, 0.000468
663.000000, 0.000168
664.000000, 0.000071
665.000000, 0.000397
666.000000, 0.000309
667.000000, 0.000485
668.000000, 0.000326
669.000000, 0.000379
670.000000, 0.000494
671.000000, 0.000353
672.000000, 0.000176
673.000000, 0.000617
674.000000, 0.000766
675.000000, 0.000546
676.000000, 0.000396
677.000000, 0.000616
678.000000, 0.000062
679.000000, 0.000739
680.000000, 0.000238
681.000000, 0.000519
682.000000, 0.000176
683.000000, 0.000589
684.000000, 0.000413
685.000000, 0.000818
686.000000, 0.000422
687.000000, 0.000360
688.000000, 0.000149
689.000000, 0.000598
690.000000, 0.000422
691.000000, 0.000474
692.000000, 0.000202
693.000000, 0.000123
694.000000, 0.000334
695.000000, 0.000333
696.000000, 0.000360
697.000000, 0.000465
698.000000, 0.000368
699.000000, 0.000123
700.000000, 0.000386
701.000000, 0.000429
702.000000, 0.000368
703.000000, 0.000666
704.000000, 0.000280
705.000000, 0.000280
706.000000, 0.000070
707.000000, 0.000499
708.000000, 0.000201
709.000000, 0.000542
710.000000, 0.000534
711.000000, 0.000376
712.000000, 0.000175
713.000000, 0.000603
714.000000, 0.000489
715.000000, 0.000550
716.000000, 0.000367
717.000000, 0.000725
718.000000, 0.000367
719.000000, 0.000890
720.000000, 0.000227
721.000000, 0.000497
722.000000, 0.000262
723.000000, 0.000235
724.000000, 0.000035
725.000000, 0.000689
726.000000, 0.000383
727.000000, 0.000331
728.000000, 0.000227
729.000000, 0.000461
730.000000, 0.000279
731.000000, 0.000670
732.000000, 0.000313
733.000000, 0.000322
734.000000, 0.000409
735.000000, 0.000278
736.000000, 0.000513
737.000000, 0.000512
738.000000, 0.000434
739.000000, 0.000295
740.000000, 0.000477
741.000000, 0.000278
742.000000, 0.000286
743.000000, 0.000650
744.000000, 0.000538
745.000000, 0.000173
746.000000, 0.000425
747.000000, 0.000199
748.000000, 0.000442
749.000000, 0.000537
750.000000, 0.000710
751.000000, 0.000225
752.000000, 0.000675
753.000000, 0.000363
754.000000, 0.000536
755.000000, 0.000406
756.000000, 0.000709
757.000000, 0.000251
758.000000, 0.000579
759.000000, 0.000380
760.000000, 0.000544
761.000000, 0.000457
762.000000, 0.000474
763.000000, 0.000190
764.000000, 0.000500
765.000000, 0.000293
766.000000, 0.000422
767.000000, 0.000560
768.000000, 0.000448
769.000000, 0.000121
770.000000, 0.000465
771.000000, 0.000155
772.000000, 0.000396
773.000000, 0.000525
774.000000, 0.000361
775.000000, 0.000181
776.000000, 0.000481
777.000000, 0.000387
778.000000, 0.000421
779.000000, 0.000618
780.000000, 0.000481
781.000000, 0.000275
782.000000, 0.000549
783.000000, 0.000437
784.000000, 0.000403
785.000000, 0.000634
786.000000, 0.000428
787.000000, 0.000257
788.000000, 0.000497
789.000000, 0.000462
790.000000, 0.000342
791.000000, 0.000650
792.000000, 0.000385
793.000000, 0.000282
794.000000, 0.000462
795.000000, 0.000410
796.000000, 0.000308
797.000000, 0.000675
798.000000, 0.000555
799.000000, 0.000401
800.000000, 0.000538
801.000000, 0.000546
802.000000, 0.000546
803.000000, 0.000716
804.000000, 0.000426
805.000000, 0.000375
806.000000, 0.000537
807.000000, 0.000511
808.000000, 0.000375
809.000000, 0.000613
810.000000, 0.000460
811.000000, 0.000553
812.000000, 0.000672
813.000000, 0.000587
814.000000, 0.000340
815.000000, 0.000511
816.000000, 0.000315
817.000000, 0.000595
818.000000, 0.000715
819.000000, 0.000459
820.000000, 0.000357
821.000000, 0.000596
822.000000, 0.000417
823.000000, 0.000570
824.000000, 0.000630
825.000000, 0.000587
826.000000, 0.000417
827.000000, 0.000520
828.000000, 0.000332
829.000000, 0.000562
830.000000, 0.000673
831.000000, 0.000648
832.000000, 0.000341
833.000000, 0.000512
834.000000, 0.000410
835.000000, 0.000598
836.000000, 0.000761
837.000000, 0.000710
838.000000, 0.000513
839.000000, 0.000582
840.000000, 0.000488
841.000000, 0.000591
842.000000, 0.000721
843.000000, 0.000566
844.000000, 0.000309
845.000000, 0.000524
846.000000, 0.000507
847.000000, 0.000688
848.000000, 0.000818
849.000000, 0.000577
850.000000, 0.000457
851.000000, 0.000535
852.000000, 0.000449
853.000000, 0.000578
854.000000, 0.000785
855.000000, 0.000673
856.000000, 0.000492
857.000000, 0.000510
858.000000, 0.000319
859.000000, 0.000354
860.000000, 0.000467
861.000000, 0.000406
862.000000, 0.000457
863.000000, 0.000463
864.000000, 0.000474
865.000000, 0.000482
866.000000, 0.000534
867.000000, 0.000480
868.000000, 0.000483
869.000000, 0.000557
870.000000, 0.000547
871.000000, 0.000566
872.000000, 0.000490
873.000000, 0.000381
874.000000, 0.000376
875.000000, 0.000468
876.000000, 0.000547
877.000000, 0.000556
878.000000, 0.000564
879.000000, 0.000497
880.000000, 0.000415
881.000000, 0.000418
882.000000, 0.000482
883.000000, 0.000517
884.000000, 0.000503
885.000000, 0.000383
886.000000, 0.000321
887.000000, 0.000412
888.000000, 0.000600
889.000000, 0.000747
890.000000, 0.000644
891.000000, 0.000512
892.000000, 0.000459
893.000000, 0.000406
894.000000, 0.000425
895.000000, 0.000468
896.000000, 0.000467
897.000000, 0.000536
898.000000, 0.000554
899.000000, 0.000486
900.000000, 0.000420
901.000000, 0.000395
902.000000, 0.000480
903.000000, 0.000550
904.000000, 0.000507
905.000000, 0.000487
906.000000, 0.000443
907.000000, 0.000395
908.000000, 0.000422
909.000000, 0.000512
910.000000, 0.000586
911.000000, 0.000567
912.000000, 0.000546
913.000000, 0.000490
914.000000, 0.000444
915.000000, 0.000432
916.000000, 0.000530
917.000000, 0.000528
918.000000, 0.000543
919.000000, 0.000554
920.000000, 0.000523
921.000000, 0.000430
922.000000, 0.000456
923.000000, 0.000562
924.000000, 0.000541
925.000000, 0.000573
926.000000, 0.000545
927.000000, 0.000525
928.000000, 0.000552
929.000000, 0.000573
930.000000, 0.000656
931.000000, 0.000501
932.000000, 0.000237
933.000000, 0.000505
934.000000, 0.000778
935.000000, 0.000506
936.000000, 0.000218
937.000000, 0.000482
938.000000, 0.000549
939.000000, 0.000553
940.000000, 0.000634
941.000000, 0.000541
942.000000, 0.000468
943.000000, 0.000506
944.000000, 0.000623
945.000000, 0.000584
946.000000, 0.000542
947.000000, 0.000508
948.000000, 0.000493
949.000000, 0.000439
950.000000, 0.000420
951.000000, 0.000571
952.000000, 0.000504
953.000000, 0.000542
954.000000, 0.000534
955.000000, 0.000340
956.000000, 0.000125
957.000000, 0.000432
958.000000, 0.000943
959.000000, 0.000867
960.000000, 0.000499
961.000000, 0.000186
962.000000, 0.000443
963.000000, 0.000756
964.000000, 0.000683
965.000000, 0.000636
966.000000, 0.000399
967.000000, 0.000130
968.000000, 0.000402
969.000000, 0.000631
970.000000, 0.000406
971.000000, 0.000338
972.000000, 0.000501
973.000000, 0.000624
974.000000, 0.000389
975.000000, 0.000369
976.000000, 0.000656
977.000000, 0.000640
978.000000, 0.000466
979.000000, 0.000648
980.000000, 0.000751
981.000000, 0.000595
982.000000, 0.000471
983.000000, 0.000622
984.000000, 0.000412
985.000000, 0.000343
986.000000, 0.000543
987.000000, 0.000797
988.000000, 0.000534
989.000000, 0.000422
990.000000, 0.000396
991.000000, 0.000349
992.000000, 0.000476
993.000000, 0.000465
994.000000, 0.000418
995.000000, 0.000537
996.000000, 0.000795
997.000000, 0.000547
998.000000, 0.000486
999.000000, 0.000393
1000.000000, 0.000517
1001.000000, 0.000569
1002.000000, 0.000607
1003.000000, 0.000517
1004.000000, 0.000503
1005.000000, 0.000429
1006.000000, 0.000428
1007.000000, 0.000434
1008.000000, 0.000499
1009.000000, 0.000531
1010.000000, 0.000449
1011.000000, 0.000370
1012.000000, 0.000538
1013.000000, 0.000809
1014.000000, 0.000542
1015.000000, 0.000482
1016.000000, 0.000454
1017.000000, 0.000615
1018.000000, 0.000725
1019.000000, 0.000485
1020.000000, 0.000366
1021.000000, 0.000259
1022.000000, 0.000337
1023.000000, 0.000473
1024.000000, 0.000940
1025.000000, 0.000747
1026.000000, 0.000408
1027.000000, 0.000252
1028.000000, 0.000285
1029.000000, 0.000459
1030.000000, 0.000942
1031.000000, 0.000943
1032.000000, 0.000390
1033.000000, 0.000428
1034.000000, 0.000363
1035.000000, 0.000394
1036.000000, 0.000422
1037.000000, 0.000651
1038.000000, 0.000935
1039.000000, 0.000444
1040.000000, 0.000396
1041.000000, 0.000365
1042.000000, 0.000406
1043.000000, 0.000322
1044.000000, 0.000470
1045.000000, 0.000890
1046.000000, 0.000946
1047.000000, 0.000375
1048.000000, 0.000407
1049.000000, 0.000331
1050.000000, 0.000410
1051.000000, 0.000422
1052.000000, 0.000607
1053.000000, 0.000863
1054.000000, 0.000512
1055.000000, 0.000405
1056.000000, 0.000402
1057.000000, 0.000322
1058.000000, 0.000252
1059.000000, 0.000343
1060.000000, 0.000518
1061.000000, 0.000999
1062.000000, 0.000807
1063.000000, 0.000425
1064.000000, 0.000395
1065.000000, 0.000363
1066.000000, 0.000373
1067.000000, 0.000376
1068.000000, 0.000379
1069.000000, 0.000484
1070.000000, 0.000394
1071.000000, 0.000797
1072.000000, 0.000821
1073.000000, 0.000735
1074.000000, 0.000359
1075.000000, 0.000298
1076.000000, 0.000316
1077.000000, 0.000335
1078.000000, 0.000451
1079.000000, 0.000782
1080.000000, 0.000815
1081.000000, 0.000644
1082.000000, 0.000219
1083.000000, 0.000272
1084.000000, 0.000364
1085.000000, 0.000358
1086.000000, 0.000641
1087.000000, 0.000703
1088.000000, 0.000709
1089.000000, 0.000782
1090.000000, 0.000636
1091.000000, 0.000299
1092.000000, 0.000359
1093.000000, 0.000436
1094.000000, 0.000737
1095.000000, 0.000774
1096.000000, 0.000746
