# Wavelength  (nm), Transmission (%)
200.000000, 0.004082
201.000000, 0.003938
202.000000, 0.003851
203.000000, 0.003755
204.000000, 0.003708
205.000000, 0.003599
206.000000, 0.003467
207.000000, 0.003411
208.000000, 0.003252
209.000000, 0.003182
210.000000, 0.003093
211.000000, 0.003006
212.000000, 0.002908
213.000000, 0.002890
214.000000, 0.002800
215.000000, 0.002742
216.000000, 0.002721
217.000000, 0.002633
218.000000, 0.002660
219.000000, 0.002610
220.000000, 0.002595
221.000000, 0.002522
222.000000, 0.002562
223.000000, 0.002526
224.000000, 0.002555
225.000000, 0.002520
226.000000, 0.002511
227.000000, 0.002528
228.000000, 0.002499
229.000000, 0.002492
230.000000, 0.002484
231.000000, 0.002463
232.000000, 0.002468
233.000000, 0.002435
234.000000, 0.002460
235.000000, 0.002424
236.000000, 0.002407
237.000000, 0.002381
238.000000, 0.002348
239.000000, 0.002313
240.000000, 0.002291
241.000000, 0.002283
242.000000, 0.002283
243.000000, 0.002261
244.000000, 0.002250
245.000000, 0.002236
246.000000, 0.002215
247.000000, 0.002202
248.000000, 0.002216
249.000000, 0.002164
250.000000, 0.002185
251.000000, 0.002175
252.000000, 0.002154
253.000000, 0.002161
254.000000, 0.002146
255.000000, 0.002084
256.000000, 0.002109
257.000000, 0.002113
258.000000, 0.002118
259.000000, 0.002072
260.000000, 0.002048
261.000000, 0.002045
262.000000, 0.002057
263.000000, 0.001997
264.000000, 0.002008
265.000000, 0.001970
266.000000, 0.001967
267.000000, 0.001960
268.000000, 0.001935
269.000000, 0.001893
270.000000, 0.001894
271.000000, 0.001875
272.000000, 0.001853
273.000000, 0.001858
274.000000, 0.001820
275.000000, 0.001800
276.000000, 0.001793
277.000000, 0.001785
278.000000, 0.001762
279.000000, 0.001731
280.000000, 0.001667
281.000000, 0.001669
282.000000, 0.001661
283.000000, 0.001618
284.000000, 0.001571
285.000000, 0.001581
286.000000, 0.001543
287.000000, 0.001507
288.000000, 0.001506
289.000000, 0.001414
290.000000, 0.001388
291.000000, 0.001346
292.000000, 0.001285
293.000000, 0.001243
294.000000, 0.001205
295.000000, 0.001122
296.000000, 0.001095
297.000000, 0.001036
298.000000, 0.000956
299.000000, 0.000899
300.000000, 0.000851
301.000000, 0.000808
302.000000, 0.000786
303.000000, 0.000712
304.000000, 0.000688
305.000000, 0.000626
306.000000, 0.000553
307.000000, 0.000539
308.000000, 0.000512
309.000000, 0.000471
310.000000, 0.000415
311.000000, 0.000386
312.000000, 0.000342
313.000000, 0.000320
314.000000, 0.000311
315.000000, 0.000289
316.000000, 0.000261
317.000000, 0.000222
318.000000, 0.000203
319.000000, 0.000195
320.000000, 0.000191
321.000000, 0.000172
322.000000, 0.000149
323.000000, 0.000163
324.000000, 0.000141
325.000000, 0.000136
326.000000, 0.000116
327.000000, 0.000104
328.000000, 0.000109
329.000000, 0.000091
330.000000, 0.000086
331.000000, 0.000082
332.000000, 0.000101
333.000000, 0.000076
334.000000, 0.000064
335.000000, 0.000066
336.000000, 0.000073
337.000000, 0.000062
338.000000, 0.000060
339.000000, 0.000064
340.000000, 0.000039
341.000000, 0.000053
342.000000, 0.000054
343.000000, 0.000069
344.000000, 0.000050
345.000000, 0.000063
346.000000, 0.000062
347.000000, 0.000049
348.000000, 0.000050
349.000000, -0.000089
350.000000, 0.000064
351.000000, 0.000069
352.000000, 0.000078
353.000000, 0.000059
354.000000, 0.000076
355.000000, 0.000049
356.000000, 0.000075
357.000000, 0.000063
358.000000, 0.000055
359.000000, 0.000066
360.000000, 0.000058
361.000000, 0.000065
362.000000, 0.000069
363.000000, 0.000052
364.000000, 0.000075
365.000000, 0.000094
366.000000, 0.000150
367.000000, 0.000264
368.000000, 0.000567
369.000000, 0.001236
370.000000, 0.002596
371.000000, 0.005348
372.000000, 0.010358
373.000000, 0.018934
374.000000, 0.033418
375.000000, 0.056346
376.000000, 0.090884
377.000000, 0.141353
378.000000, 0.214674
379.000000, 0.323456
380.000000, 0.473356
381.000000, 0.669954
382.000000, 0.901416
383.000000, 1.163497
384.000000, 1.476170
385.000000, 1.838065
386.000000, 2.289884
387.000000, 2.841946
388.000000, 3.419659
389.000000, 4.023958
390.000000, 4.651896
391.000000, 5.434083
392.000000, 6.338214
393.000000, 6.474839
394.000000, 5.232244
395.000000, 3.459949
396.000000, 2.347854
397.000000, 1.823126
398.000000, 1.200800
399.000000, 0.512088
400.000000, 0.123711
401.000000, 0.028217
402.000000, 0.011327
403.000000, 0.006469
404.000000, 0.003171
405.000000, 0.000922
406.000000, 0.000134
407.000000, 0.000061
408.000000, 0.000053
409.000000, 0.000043
410.000000, 0.000045
411.000000, 0.000043
412.000000, 0.000053
413.000000, 0.000036
414.000000, 0.000055
415.000000, 0.000048
416.000000, 0.000039
417.000000, 0.000050
418.000000, 0.000046
419.000000, 0.000039
420.000000, 0.000035
421.000000, 0.000040
422.000000, 0.000044
423.000000, 0.000025
424.000000, 0.000038
425.000000, 0.000045
426.000000, 0.000029
427.000000, 0.000040
428.000000, 0.000038
429.000000, 0.000038
430.000000, 0.000079
431.000000, 0.000820
432.000000, 0.001732
433.000000, 0.001621
434.000000, 0.000842
435.000000, 0.000706
436.000000, 0.003643
437.000000, 0.112069
438.000000, 0.332144
439.000000, 0.433076
440.000000, 0.320829
441.000000, 1.380719
442.000000, 5.860533
443.000000, 9.947639
444.000000, 8.824804
445.000000, 11.693511
446.000000, 21.340836
447.000000, 25.063271
448.000000, 20.050154
449.000000, 19.579700
450.000000, 27.449795
451.000000, 32.967781
452.000000, 31.617720
453.000000, 30.034697
454.000000, 33.185249
455.000000, 38.089500
456.000000, 40.213989
457.000000, 39.648567
458.000000, 38.443504
459.000000, 37.054867
460.000000, 35.923283
461.000000, 36.983047
462.000000, 41.129345
463.000000, 45.878250
464.000000, 48.142754
465.000000, 48.701244
466.000000, 50.558365
467.000000, 52.624847
468.000000, 50.273037
469.000000, 43.760990
470.000000, 39.554100
471.000000, 43.177124
472.000000, 53.013802
473.000000, 58.845730
474.000000, 53.545433
475.000000, 43.880413
476.000000, 41.197632
477.000000, 49.250061
478.000000, 59.973598
479.000000, 60.379589
480.000000, 49.172520
481.000000, 38.908798
482.000000, 38.983902
483.000000, 49.507805
484.000000, 62.570698
485.000000, 65.512711
486.000000, 57.203472
487.000000, 49.403442
488.000000, 51.671974
489.000000, 61.847145
490.000000, 68.079826
491.000000, 61.808510
492.000000, 49.778481
493.000000, 43.652004
494.000000, 48.027798
495.000000, 60.087879
496.000000, 69.889526
497.000000, 68.111252
498.000000, 58.091537
499.000000, 51.145058
500.000000, 53.516460
501.000000, 63.088394
502.000000, 71.103081
503.000000, 69.088020
504.000000, 59.916012
505.000000, 53.200531
506.000000, 54.864510
507.000000, 63.667130
508.000000, 72.703110
509.000000, 73.777443
510.000000, 66.484375
511.000000, 59.120773
512.000000, 58.822231
513.000000, 66.132866
514.000000, 75.190720
515.000000, 77.277946
516.000000, 69.786774
517.000000, 59.853458
518.000000, 54.943569
519.000000, 57.944645
520.000000, 66.811981
521.000000, 75.253448
522.000000, 76.214149
523.000000, 69.488426
524.000000, 62.081993
525.000000, 60.317463
526.000000, 65.629005
527.000000, 74.555847
528.000000, 80.066834
529.000000, 77.070549
530.000000, 68.193687
531.000000, 60.677284
532.000000, 59.456764
533.000000, 65.175850
534.000000, 74.551437
535.000000, 80.503632
536.000000, 78.022575
537.000000, 69.690414
538.000000, 62.557972
539.000000, 61.256344
540.000000, 66.529762
541.000000, 75.360733
542.000000, 81.605530
543.000000, 79.740929
544.000000, 71.178459
545.000000, 62.620865
546.000000, 59.560543
547.000000, 63.420574
548.000000, 72.309380
549.000000, 80.416992
550.000000, 80.962112
551.000000, 73.177513
552.000000, 63.181408
553.000000, 57.525051
554.000000, 58.704124
555.000000, 66.426537
556.000000, 76.079407
557.000000, 79.635277
558.000000, 72.300415
559.000000, 58.886875
560.000000, 47.122536
561.000000, 40.718021
562.000000, 39.527546
563.000000, 42.473934
564.000000, 48.097111
565.000000, 54.330956
566.000000, 58.721966
567.000000, 60.849182
568.000000, 61.123573
569.000000, 57.514591
570.000000, 46.844852
571.000000, 31.120193
572.000000, 16.955406
573.000000, 8.352966
574.000000, 4.230991
575.000000, 2.350795
576.000000, 1.439641
577.000000, 0.958870
578.000000, 0.684378
579.000000, 0.523222
580.000000, 0.422577
581.000000, 0.358636
582.000000, 0.318470
583.000000, 0.295738
584.000000, 0.287267
585.000000, 0.292517
586.000000, 0.315075
587.000000, 0.363284
588.000000, 0.459118
589.000000, 0.652636
590.000000, 1.026428
591.000000, 1.481766
592.000000, 1.586875
593.000000, 1.169534
594.000000, 0.620682
595.000000, 0.290635
596.000000, 0.149386
597.000000, 0.087763
598.000000, 0.057324
599.000000, 0.040767
600.000000, 0.031132
601.000000, 0.025222
602.000000, 0.021539
603.000000, 0.019372
604.000000, 0.018261
605.000000, 0.018097
606.000000, 0.018840
607.000000, 0.020568
608.000000, 0.023764
609.000000, 0.029242
610.000000, 0.038838
611.000000, 0.056146
612.000000, 0.092073
613.000000, 0.184017
614.000000, 0.548136
615.000000, 2.023271
616.000000, 4.061415
617.000000, 4.203090
618.000000, 2.338461
619.000000, 0.893336
620.000000, 0.520401
621.000000, 0.425320
622.000000, 0.422862
623.000000, 0.488774
624.000000, 0.653280
625.000000, 1.028562
626.000000, 1.996397
627.000000, 4.618928
628.000000, 9.095850
629.000000, 12.085303
630.000000, 10.548689
631.000000, 6.940283
632.000000, 4.665161
633.000000, 3.974541
634.000000, 4.259163
635.000000, 5.699932
636.000000, 9.665269
637.000000, 18.965921
638.000000, 31.296762
639.000000, 35.196453
640.000000, 26.351421
641.000000, 15.243589
642.000000, 9.469468
643.000000, 7.323110
644.000000, 6.878609
645.000000, 7.628830
646.000000, 9.958659
647.000000, 15.021578
648.000000, 24.006802
649.000000, 33.196873
650.000000, 34.909492
651.000000, 27.630850
652.000000, 18.417307
653.000000, 12.415220
654.000000, 9.526859
655.000000, 8.392950
656.000000, 8.350031
657.000000, 9.297001
658.000000, 11.499634
659.000000, 15.689838
660.000000, 22.456417
661.000000, 30.898207
662.000000, 36.752129
663.000000, 36.173409
664.000000, 30.357058
665.000000, 23.966257
666.000000, 19.606588
667.000000, 17.510122
668.000000, 17.250128
669.000000, 18.684488
670.000000, 22.063286
671.000000, 27.883604
672.000000, 36.184685
673.000000, 44.813560
674.000000, 49.793861
675.000000, 48.169430
676.000000, 41.658627
677.000000, 34.391777
678.000000, 29.040251
679.000000, 25.924170
680.000000, 24.890656
681.000000, 25.754877
682.000000, 28.583967
683.000000, 33.568989
684.000000, 40.983875
685.000000, 49.864407
686.000000, 57.727043
687.000000, 61.582882
688.000000, 60.011578
689.000000, 54.720997
690.000000, 48.640079
691.000000, 43.886749
692.000000, 41.107838
693.000000, 40.494232
694.000000, 41.929245
695.000000, 45.490734
696.000000, 50.927364
697.000000, 57.924576
698.000000, 65.004814
699.000000, 70.350876
700.000000, 72.338608
701.000000, 70.789047
702.000000, 66.770447
703.000000, 62.173698
704.000000, 58.462524
705.000000, 56.271397
706.000000, 55.920685
707.000000, 57.428986
708.000000, 60.679729
709.000000, 65.175613
710.000000, 70.427071
711.000000, 75.265678
712.000000, 78.639175
713.000000, 79.728134
714.000000, 78.485901
715.000000, 75.684769
716.000000, 72.420349
717.000000, 69.619987
718.000000, 67.794350
719.000000, 67.380707
720.000000, 68.335709
721.000000, 70.625114
722.000000, 73.823524
723.000000, 77.546082
724.000000, 81.077209
725.000000, 83.759880
726.000000, 84.815933
727.000000, 84.324089
728.000000, 82.433083
729.000000, 79.872757
730.000000, 77.354172
731.000000, 75.425125
732.000000, 74.329758
733.000000, 74.201408
734.000000, 75.085274
735.000000, 76.687897
736.000000, 78.834702
737.000000, 81.023697
738.000000, 83.010231
739.000000, 84.211494
740.000000, 84.465393
741.000000, 83.795433
742.000000, 82.327499
743.000000, 80.535156
744.000000, 78.750069
745.000000, 77.414444
746.000000, 76.646370
747.000000, 76.536247
748.000000, 77.064125
749.000000, 78.216942
750.000000, 79.674316
751.000000, 81.312706
752.000000, 82.793007
753.000000, 83.846680
754.000000, 84.234711
755.000000, 83.974983
756.000000, 83.210312
757.000000, 82.101059
758.000000, 80.840134
759.000000, 79.692421
760.000000, 78.915543
761.000000, 78.572662
762.000000, 78.751785
763.000000, 79.370316
764.000000, 80.565849
765.000000, 81.948730
766.000000, 83.401314
767.000000, 84.712585
768.000000, 85.832062
769.000000, 86.384964
770.000000, 86.478920
771.000000, 86.104431
772.000000, 85.305054
773.000000, 84.347603
774.000000, 83.317528
775.000000, 82.446739
776.000000, 81.750458
777.000000, 81.277802
778.000000, 81.196167
779.000000, 81.403412
780.000000, 81.801529
781.000000, 82.411560
782.000000, 82.972694
783.000000, 83.478256
784.000000, 83.955978
785.000000, 84.150490
786.000000, 84.236404
787.000000, 84.009285
788.000000, 83.841553
789.000000, 83.591103
790.000000, 83.415520
791.000000, 83.299507
792.000000, 83.334663
793.000000, 83.590622
794.000000, 83.892616
795.000000, 84.459953
796.000000, 85.060814
797.000000, 85.726677
798.000000, 86.311134
799.000000, 86.789276
800.000000, 87.330032
801.000000, 87.507950
802.000000, 87.610657
803.000000, 87.773605
804.000000, 87.903259
805.000000, 87.852051
806.000000, 87.875336
807.000000, 87.792435
808.000000, 87.825882
809.000000, 87.897812
810.000000, 88.172226
811.000000, 88.175804
812.000000, 88.296547
813.000000, 88.425079
814.000000, 88.724533
815.000000, 88.829140
816.000000, 88.961121
817.000000, 88.979286
818.000000, 89.021545
819.000000, 89.065193
820.000000, 89.004990
821.000000, 88.930443
822.000000, 88.925972
823.000000, 88.890839
824.000000, 88.970688
825.000000, 89.010498
826.000000, 88.993195
827.000000, 89.122429
828.000000, 89.264908
829.000000, 89.422043
830.000000, 89.603340
831.000000, 89.726517
832.000000, 89.861176
833.000000, 90.002213
834.000000, 90.074036
835.000000, 90.186935
836.000000, 90.096870
837.000000, 90.114571
838.000000, 90.075012
839.000000, 90.061279
840.000000, 90.073517
841.000000, 90.201309
842.000000, 90.280113
843.000000, 90.315193
844.000000, 90.413406
845.000000, 90.520187
846.000000, 90.548248
847.000000, 90.629532
848.000000, 90.725288
849.000000, 90.641174
850.000000, 90.619530
851.000000, 90.519043
852.000000, 90.421829
853.000000, 90.257332
854.000000, 90.184647
855.000000, 90.045670
856.000000, 89.916023
857.000000, 89.810181
858.000000, 89.807091
859.000000, 89.865425
860.000000, 89.922554
861.000000, 90.121094
862.000000, 90.258095
863.000000, 90.306618
864.000000, 90.603172
865.000000, 90.688370
866.000000, 90.955864
867.000000, 91.120651
868.000000, 91.290283
869.000000, 91.346458
870.000000, 91.320236
871.000000, 91.221352
872.000000, 91.443474
873.000000, 91.384811
874.000000, 91.428894
875.000000, 91.393120
876.000000, 91.266510
877.000000, 91.326958
878.000000, 91.362823
879.000000, 91.352516
880.000000, 91.369972
881.000000, 91.534058
882.000000, 91.480278
883.000000, 91.498116
884.000000, 91.392471
885.000000, 91.446609
886.000000, 91.156570
887.000000, 91.128304
888.000000, 91.008499
889.000000, 90.813446
890.000000, 90.669464
891.000000, 90.590050
892.000000, 90.473816
893.000000, 90.313499
894.000000, 90.228462
895.000000, 90.248611
896.000000, 90.327225
897.000000, 90.375526
898.000000, 90.523407
899.000000, 90.541939
900.000000, 90.638969
901.000000, 90.798767
902.000000, 90.785423
903.000000, 90.679901
904.000000, 90.617958
905.000000, 90.412033
906.000000, 90.172539
907.000000, 90.026199
908.000000, 89.841362
909.000000, 89.545502
910.000000, 89.330948
911.000000, 89.016571
912.000000, 88.946747
913.000000, 88.761864
914.000000, 88.656357
915.000000, 88.729790
916.000000, 88.852417
917.000000, 88.988548
918.000000, 89.239243
919.000000, 89.528015
920.000000, 89.615211
921.000000, 89.959244
922.000000, 90.214653
923.000000, 90.363960
924.000000, 90.650261
925.000000, 90.683212
926.000000, 90.743034
927.000000, 90.810463
928.000000, 90.730690
929.000000, 90.808754
930.000000, 90.697350
931.000000, 90.608902
932.000000, 90.448189
933.000000, 90.517525
934.000000, 90.584831
935.000000, 90.541885
936.000000, 90.710602
937.000000, 90.706566
938.000000, 90.727554
939.000000, 90.759911
940.000000, 90.770332
941.000000, 90.636345
942.000000, 90.527870
943.000000, 90.398575
944.000000, 90.139282
945.000000, 89.773407
946.000000, 89.508408
947.000000, 89.193703
948.000000, 89.011124
949.000000, 88.683228
950.000000, 88.523659
951.000000, 88.388199
952.000000, 88.279846
953.000000, 88.377586
954.000000, 88.535736
955.000000, 88.874565
956.000000, 88.969017
957.000000, 89.337036
958.000000, 89.687675
959.000000, 90.078201
960.000000, 90.198524
961.000000, 90.403419
962.000000, 90.519798
963.000000, 90.504135
964.000000, 90.340347
965.000000, 90.141052
966.000000, 89.939308
967.000000, 89.706215
968.000000, 89.394447
969.000000, 89.147858
970.000000, 89.024925
971.000000, 88.872169
972.000000, 88.865906
973.000000, 88.985100
974.000000, 89.182854
975.000000, 89.369926
976.000000, 89.617172
977.000000, 89.989197
978.000000, 90.166534
979.000000, 90.439362
980.000000, 90.779762
981.000000, 90.964676
982.000000, 90.835175
983.000000, 91.011536
984.000000, 90.940247
985.000000, 90.821732
986.000000, 90.501045
987.000000, 90.101540
988.000000, 89.707657
989.000000, 89.194443
990.000000, 88.356438
991.000000, 87.652840
992.000000, 86.877266
993.000000, 86.176094
994.000000, 85.882637
995.000000, 85.699615
996.000000, 86.066627
997.000000, 86.795441
998.000000, 87.550682
999.000000, 87.042526
1000.000000, 83.639000
1001.000000, 74.915604
1002.000000, 60.877396
1003.000000, 45.507675
1004.000000, 31.877682
1005.000000, 21.991768
1006.000000, 15.275797
1007.000000, 10.966027
1008.000000, 7.954973
1009.000000, 5.926756
1010.000000, 4.654156
1011.000000, 3.293844
1012.000000, 1.979829
1013.000000, 1.172529
1014.000000, 0.686356
1015.000000, 0.404294
1016.000000, 0.245055
1017.000000, 0.150784
1018.000000, 0.092802
1019.000000, 0.060048
1020.000000, 0.038176
1021.000000, 0.024522
1022.000000, 0.016195
1023.000000, 0.010858
1024.000000, 0.007401
1025.000000, 0.005202
1026.000000, 0.003733
1027.000000, 0.002743
1028.000000, 0.001989
1029.000000, 0.001668
1030.000000, 0.001214
1031.000000, 0.000983
1032.000000, 0.000929
1033.000000, 0.000715
1034.000000, 0.000671
1035.000000, 0.000572
1036.000000, 0.000605
1037.000000, 0.000600
1038.000000, 0.000478
1039.000000, 0.000532
1040.000000, 0.000524
1041.000000, 0.000439
1042.000000, 0.000424
1043.000000, 0.000485
1044.000000, 0.000395
1045.000000, 0.000413
1046.000000, 0.000500
1047.000000, 0.000385
1048.000000, 0.000448
1049.000000, 0.000379
1050.000000, 0.000403
1051.000000, 0.000433
1052.000000, 0.000388
1053.000000, 0.000454
1054.000000, 0.000449
1055.000000, 0.000456
1056.000000, 0.000328
1057.000000, 0.000400
1058.000000, 0.000325
1059.000000, 0.000356
1060.000000, 0.000373
1061.000000, 0.000435
1062.000000, 0.000322
1063.000000, 0.000400
1064.000000, 0.000325
1065.000000, 0.000380
1066.000000, 0.000359
1067.000000, 0.000417
1068.000000, 0.000336
1069.000000, 0.000435
1070.000000, 0.000392
1071.000000, 0.000309
1072.000000, 0.000354
1073.000000, 0.000405
1074.000000, 0.000362
1075.000000, 0.000414
1076.000000, 0.000392
1077.000000, 0.000423
1078.000000, 0.000411
1079.000000, 0.000438
1080.000000, 0.000376
