# Wavelength  (nm), Transmission (%)
200.000000, -0.000001
201.000000, -0.000013
202.000000, -0.000022
203.000000, 0.000001
204.000000, -0.000010
205.000000, 0.000002
206.000000, -0.000006
207.000000, 0.000014
208.000000, -0.000005
209.000000, -0.000011
210.000000, 0.000005
211.000000, -0.000001
212.000000, 0.000009
213.000000, 0.000009
214.000000, -0.000000
215.000000, 0.000002
216.000000, 0.000001
217.000000, 0.000006
218.000000, 0.000009
219.000000, -0.000008
220.000000, 0.000007
221.000000, 0.000011
222.000000, -0.000004
223.000000, 0.000005
224.000000, 0.000009
225.000000, -0.000008
226.000000, 0.000011
227.000000, 0.000005
228.000000, 0.000003
229.000000, 0.000011
230.000000, 0.000009
231.000000, 0.000002
232.000000, 0.000011
233.000000, 0.000004
234.000000, 0.000009
235.000000, 0.000007
236.000000, 0.000008
237.000000, 0.000024
238.000000, 0.000006
239.000000, 0.000011
240.000000, 0.000013
241.000000, 0.000006
242.000000, 0.000004
243.000000, 0.000018
244.000000, 0.000007
245.000000, 0.000003
246.000000, 0.000017
247.000000, 0.000007
248.000000, 0.000004
249.000000, 0.000006
250.000000, 0.000017
251.000000, 0.000007
252.000000, 0.000006
253.000000, 0.000012
254.000000, 0.000006
255.000000, 0.000003
256.000000, 0.000007
257.000000, 0.000006
258.000000, 0.000015
259.000000, 0.000020
260.000000, 0.000007
261.000000, 0.000008
262.000000, 0.000007
263.000000, 0.000009
264.000000, 0.000014
265.000000, 0.000007
266.000000, 0.000013
267.000000, 0.000013
268.000000, 0.000007
269.000000, 0.000005
270.000000, 0.000019
271.000000, 0.000002
272.000000, 0.000009
273.000000, 0.000020
274.000000, 0.000007
275.000000, 0.000008
276.000000, 0.000023
277.000000, 0.000009
278.000000, 0.000009
279.000000, 0.000003
280.000000, 0.000023
281.000000, 0.000007
282.000000, 0.000008
283.000000, 0.000019
284.000000, 0.000009
285.000000, 0.000008
286.000000, 0.000020
287.000000, 0.000007
288.000000, 0.000007
289.000000, 0.000018
290.000000, 0.000012
291.000000, 0.000021
292.000000, 0.000004
293.000000, 0.000009
294.000000, 0.000021
295.000000, 0.000010
296.000000, 0.000020
297.000000, 0.000009
298.000000, 0.000000
299.000000, 0.000020
300.000000, 0.000008
301.000000, 0.000024
302.000000, 0.000012
303.000000, 0.000009
304.000000, 0.000027
305.000000, 0.000006
306.000000, 0.000005
307.000000, 0.000006
308.000000, 0.000005
309.000000, 0.000021
310.000000, 0.000005
311.000000, 0.000011
312.000000, 0.000011
313.000000, 0.000002
314.000000, 0.000010
315.000000, 0.000020
316.000000, -0.000001
317.000000, 0.000000
318.000000, 0.000007
319.000000, 0.000000
320.000000, 0.000016
321.000000, -0.000002
322.000000, 0.000008
323.000000, 0.000001
324.000000, -0.000002
325.000000, 0.000025
326.000000, 0.000008
327.000000, 0.000007
328.000000, 0.000006
329.000000, 0.000014
330.000000, 0.000008
331.000000, 0.000005
332.000000, 0.000016
333.000000, 0.000006
334.000000, 0.000008
335.000000, 0.000016
336.000000, 0.000003
337.000000, 0.000002
338.000000, 0.000010
339.000000, 0.000002
340.000000, 0.000012
341.000000, 0.000009
342.000000, 0.000000
343.000000, 0.000003
344.000000, 0.000005
345.000000, 0.000008
346.000000, -0.000003
347.000000, 0.000002
348.000000, 0.000014
349.000000, -0.000136
350.000000, -0.000018
351.000000, 0.000002
352.000000, 0.000001
353.000000, -0.000006
354.000000, 0.000008
355.000000, -0.000009
356.000000, -0.000003
357.000000, -0.000001
358.000000, -0.000007
359.000000, 0.000010
360.000000, -0.000016
361.000000, 0.000003
362.000000, 0.000009
363.000000, -0.000004
364.000000, -0.000003
365.000000, 0.000002
366.000000, 0.000005
367.000000, -0.000014
368.000000, 0.000004
369.000000, 0.000001
370.000000, 0.000005
371.000000, -0.000016
372.000000, 0.000003
373.000000, 0.000005
374.000000, 0.000005
375.000000, 0.000003
376.000000, 0.000002
377.000000, -0.000012
378.000000, -0.000003
379.000000, 0.000007
380.000000, 0.000008
381.000000, 0.000006
382.000000, 0.000001
383.000000, -0.000012
384.000000, 0.000005
385.000000, 0.000002
386.000000, -0.000000
387.000000, 0.000004
388.000000, 0.000006
389.000000, -0.000013
390.000000, 0.000003
391.000000, 0.000009
392.000000, 0.000003
393.000000, 0.000001
394.000000, -0.000012
395.000000, 0.000002
396.000000, 0.000008
397.000000, 0.000004
398.000000, 0.000002
399.000000, -0.000008
400.000000, 0.000001
401.000000, 0.000000
402.000000, 0.000005
403.000000, 0.000000
404.000000, -0.000013
405.000000, 0.000005
406.000000, 0.000004
407.000000, 0.000003
408.000000, -0.000005
409.000000, -0.000006
410.000000, 0.000005
411.000000, -0.000002
412.000000, 0.000003
413.000000, -0.000004
414.000000, 0.000004
415.000000, -0.000001
416.000000, -0.000005
417.000000, -0.000003
418.000000, 0.000000
419.000000, 0.000003
420.000000, -0.000002
421.000000, 0.000001
422.000000, 0.000005
423.000000, 0.000001
424.000000, -0.000012
425.000000, 0.000006
426.000000, 0.000005
427.000000, -0.000011
428.000000, 0.000000
429.000000, -0.000004
430.000000, 0.000002
431.000000, -0.000012
432.000000, 0.000001
433.000000, -0.000006
434.000000, 0.000002
435.000000, -0.000000
436.000000, -0.000012
437.000000, 0.000001
438.000000, 0.000007
439.000000, 0.000006
440.000000, -0.000001
441.000000, -0.000005
442.000000, 0.000007
443.000000, 0.000003
444.000000, 0.000001
445.000000, -0.000002
446.000000, 0.000001
447.000000, 0.000000
448.000000, -0.000005
449.000000, 0.000007
450.000000, -0.000006
451.000000, 0.000002
452.000000, 0.000001
453.000000, 0.000001
454.000000, -0.000000
455.000000, 0.000003
456.000000, 0.000006
457.000000, 0.000002
458.000000, 0.000004
459.000000, 0.000004
460.000000, 0.000000
461.000000, -0.000003
462.000000, -0.000004
463.000000, 0.000002
464.000000, -0.000000
465.000000, -0.000001
466.000000, 0.000003
467.000000, 0.000005
468.000000, -0.000000
469.000000, -0.000002
470.000000, 0.000002
471.000000, 0.000003
472.000000, 0.000007
473.000000, 0.000001
474.000000, -0.000004
475.000000, 0.000003
476.000000, -0.000004
477.000000, 0.000007
478.000000, 0.000004
479.000000, 0.000005
480.000000, 0.000003
481.000000, 0.000001
482.000000, 0.000001
483.000000, 0.000002
484.000000, 0.000003
485.000000, 0.000004
486.000000, -0.000005
487.000000, 0.000004
488.000000, 0.000004
489.000000, 0.000006
490.000000, 0.000000
491.000000, 0.000003
492.000000, 0.000006
493.000000, 0.000008
494.000000, -0.000000
495.000000, 0.000004
496.000000, 0.000005
497.000000, 0.000004
498.000000, 0.000003
499.000000, 0.000003
500.000000, -0.000005
501.000000, 0.000002
502.000000, -0.000005
503.000000, 0.000003
504.000000, 0.000005
505.000000, -0.000000
506.000000, 0.000001
507.000000, 0.000002
508.000000, -0.000002
509.000000, 0.000005
510.000000, -0.000003
511.000000, 0.000006
512.000000, 0.000003
513.000000, 0.000003
514.000000, 0.000008
515.000000, 0.000001
516.000000, -0.000001
517.000000, 0.000004
518.000000, -0.000001
519.000000, 0.000002
520.000000, 0.000001
521.000000, 0.000001
522.000000, -0.000002
523.000000, 0.000017
524.000000, 0.000006
525.000000, 0.000007
526.000000, 0.000000
527.000000, 0.000004
528.000000, -0.000003
529.000000, 0.000001
530.000000, 0.000006
531.000000, 0.000003
532.000000, 0.000001
533.000000, 0.000006
534.000000, 0.000007
535.000000, 0.000001
536.000000, -0.000001
537.000000, 0.000001
538.000000, 0.000003
539.000000, 0.000002
540.000000, 0.000008
541.000000, 0.000011
542.000000, 0.000001
543.000000, 0.000005
544.000000, 0.000006
545.000000, 0.000005
546.000000, 0.000005
547.000000, -0.000000
548.000000, 0.000004
549.000000, 0.000005
550.000000, 0.000000
551.000000, 0.000004
552.000000, 0.000006
553.000000, 0.000005
554.000000, -0.000004
555.000000, 0.000001
556.000000, 0.000008
557.000000, 0.000003
558.000000, -0.000001
559.000000, 0.000001
560.000000, -0.000003
561.000000, 0.000003
562.000000, 0.000001
563.000000, -0.000000
564.000000, 0.000003
565.000000, 0.000004
566.000000, 0.000005
567.000000, -0.000003
568.000000, 0.000005
569.000000, -0.000005
570.000000, 0.000002
571.000000, 0.000005
572.000000, 0.000006
573.000000, 0.000003
574.000000, -0.000008
575.000000, -0.000001
576.000000, 0.000002
577.000000, 0.000005
578.000000, 0.000004
579.000000, 0.000003
580.000000, -0.000007
581.000000, 0.000007
582.000000, 0.000003
583.000000, -0.000003
584.000000, -0.000009
585.000000, 0.000011
586.000000, 0.000001
587.000000, -0.000002
588.000000, -0.000005
589.000000, 0.000003
590.000000, -0.000008
591.000000, 0.000002
592.000000, 0.000001
593.000000, -0.000007
594.000000, 0.000002
595.000000, -0.000005
596.000000, 0.000002
597.000000, 0.000004
598.000000, -0.000002
599.000000, 0.000004
600.000000, 0.000009
601.000000, 0.000001
602.000000, 0.000009
603.000000, 0.000008
604.000000, 0.000004
605.000000, 0.000009
606.000000, 0.000017
607.000000, 0.000019
608.000000, 0.000025
609.000000, 0.000019
610.000000, 0.000015
611.000000, 0.000008
612.000000, 0.000014
613.000000, 0.000008
614.000000, 0.000003
615.000000, 0.000006
616.000000, 0.000003
617.000000, 0.000014
618.000000, 0.000008
619.000000, -0.000000
620.000000, 0.000005
621.000000, 0.000002
622.000000, 0.000004
623.000000, 0.000004
624.000000, 0.000001
625.000000, 0.000001
626.000000, 0.000004
627.000000, 0.000001
628.000000, 0.000001
629.000000, -0.000002
630.000000, -0.000005
631.000000, 0.000008
632.000000, -0.000004
633.000000, 0.000002
634.000000, 0.000000
635.000000, 0.000002
636.000000, 0.000004
637.000000, -0.000002
638.000000, 0.000000
639.000000, 0.000002
640.000000, 0.000005
641.000000, 0.000003
642.000000, 0.000010
643.000000, -0.000000
644.000000, 0.000017
645.000000, 0.000006
646.000000, 0.000019
647.000000, 0.000025
648.000000, 0.000030
649.000000, 0.000037
650.000000, 0.000039
651.000000, 0.000049
652.000000, 0.000070
653.000000, 0.000100
654.000000, 0.000153
655.000000, 0.000207
656.000000, 0.000256
657.000000, 0.000273
658.000000, 0.000242
659.000000, 0.000199
660.000000, 0.000164
661.000000, 0.000142
662.000000, 0.000124
663.000000, 0.000110
664.000000, 0.000113
665.000000, 0.000120
666.000000, 0.000126
667.000000, 0.000146
668.000000, 0.000175
669.000000, 0.000198
670.000000, 0.000243
671.000000, 0.000311
672.000000, 0.000404
673.000000, 0.000491
674.000000, 0.000592
675.000000, 0.000652
676.000000, 0.000654
677.000000, 0.000589
678.000000, 0.000509
679.000000, 0.000444
680.000000, 0.000379
681.000000, 0.000339
682.000000, 0.000315
683.000000, 0.000308
684.000000, 0.000299
685.000000, 0.000329
686.000000, 0.000371
687.000000, 0.000430
688.000000, 0.000534
689.000000, 0.000711
690.000000, 0.000951
691.000000, 0.001331
692.000000, 0.001734
693.000000, 0.001978
694.000000, 0.001898
695.000000, 0.001579
696.000000, 0.001238
697.000000, 0.000935
698.000000, 0.000754
699.000000, 0.000656
700.000000, 0.000562
701.000000, 0.000547
702.000000, 0.000541
703.000000, 0.000586
704.000000, 0.000646
705.000000, 0.000739
706.000000, 0.000924
707.000000, 0.001185
708.000000, 0.001658
709.000000, 0.002360
710.000000, 0.003251
711.000000, 0.003902
712.000000, 0.003925
713.000000, 0.003235
714.000000, 0.002406
715.000000, 0.001744
716.000000, 0.001319
717.000000, 0.001070
718.000000, 0.000919
719.000000, 0.000806
720.000000, 0.000772
721.000000, 0.000774
722.000000, 0.000810
723.000000, 0.000868
724.000000, 0.000972
725.000000, 0.001192
726.000000, 0.001530
727.000000, 0.002058
728.000000, 0.002994
729.000000, 0.004382
730.000000, 0.005757
731.000000, 0.006215
732.000000, 0.005288
733.000000, 0.003833
734.000000, 0.002653
735.000000, 0.001926
736.000000, 0.001477
737.000000, 0.001204
738.000000, 0.001039
739.000000, 0.000981
740.000000, 0.000946
741.000000, 0.000976
742.000000, 0.001056
743.000000, 0.001224
744.000000, 0.001587
745.000000, 0.002137
746.000000, 0.003443
747.000000, 0.006225
748.000000, 0.011367
749.000000, 0.015751
750.000000, 0.014188
751.000000, 0.008539
752.000000, 0.004460
753.000000, 0.002619
754.000000, 0.001776
755.000000, 0.001407
756.000000, 0.001196
757.000000, 0.001095
758.000000, 0.001129
759.000000, 0.001274
760.000000, 0.001695
761.000000, 0.002675
762.000000, 0.006036
763.000000, 0.013068
764.000000, 0.016460
765.000000, 0.010258
766.000000, 0.003542
767.000000, 0.001219
768.000000, 0.000597
769.000000, 0.000342
770.000000, 0.000227
771.000000, 0.000164
772.000000, 0.000148
773.000000, 0.000115
774.000000, 0.000100
775.000000, 0.000109
776.000000, 0.000108
777.000000, 0.000150
778.000000, 0.000184
779.000000, 0.000492
780.000000, 0.002404
781.000000, 0.005094
782.000000, 0.004016
783.000000, 0.001125
784.000000, 0.000110
785.000000, 0.000045
786.000000, 0.000026
787.000000, 0.000032
788.000000, 0.000009
789.000000, 0.000008
790.000000, 0.000015
791.000000, 0.000003
792.000000, 0.000017
793.000000, 0.000014
794.000000, -0.000005
795.000000, 0.000005
796.000000, 0.000007
797.000000, 0.000016
798.000000, 0.000010
799.000000, -0.000000
800.000000, 0.000179
801.000000, 0.000203
802.000000, -0.000098
803.000000, -0.000363
804.000000, -0.000161
805.000000, 0.000011
806.000000, -0.000256
807.000000, -0.000696
808.000000, -0.000218
809.000000, -0.000366
810.000000, -0.000176
811.000000, -0.000122
812.000000, -0.000035
813.000000, -0.000009
814.000000, -0.000029
815.000000, -0.000339
816.000000, -0.000235
817.000000, 0.000118
818.000000, -0.000287
819.000000, -0.000319
820.000000, -0.000005
821.000000, -0.000335
822.000000, 0.000129
823.000000, -0.000029
824.000000, 0.000115
825.000000, 0.000122
826.000000, -0.000156
827.000000, 0.000107
828.000000, -0.000071
829.000000, 0.000316
830.000000, 0.000179
831.000000, 0.000197
832.000000, -0.000204
833.000000, -0.000075
834.000000, -0.000158
835.000000, 0.000120
836.000000, 0.000110
837.000000, -0.000057
838.000000, 0.000251
839.000000, 0.000155
840.000000, 0.000080
841.000000, -0.000034
842.000000, 0.000174
843.000000, 0.000135
844.000000, -0.000033
845.000000, 0.000112
846.000000, 0.000157
847.000000, 0.000129
848.000000, 0.000265
849.000000, 0.000245
850.000000, 0.000172
851.000000, 0.000149
852.000000, 0.000165
853.000000, 0.000103
854.000000, 0.000246
855.000000, 0.000161
856.000000, 0.000275
857.000000, 0.000453
858.000000, 0.000239
859.000000, 0.000352
860.000000, 0.000370
861.000000, 0.000291
862.000000, 0.000342
863.000000, 0.000187
864.000000, 0.000467
865.000000, 0.000386
866.000000, 0.000520
867.000000, 0.000488
868.000000, 0.000525
869.000000, 0.000398
870.000000, 0.000463
871.000000, 0.000448
872.000000, 0.000469
873.000000, 0.000510
874.000000, 0.000594
875.000000, 0.000545
876.000000, 0.000598
877.000000, 0.000572
878.000000, 0.000523
879.000000, 0.000554
880.000000, 0.000637
881.000000, 0.000562
882.000000, 0.000644
883.000000, 0.000522
884.000000, 0.000660
885.000000, 0.000611
886.000000, 0.000584
887.000000, 0.000609
888.000000, 0.000595
889.000000, 0.000649
890.000000, 0.000584
891.000000, 0.000630
892.000000, 0.000542
893.000000, 0.000656
894.000000, 0.000554
895.000000, 0.000704
896.000000, 0.000658
897.000000, 0.000513
898.000000, 0.000609
899.000000, 0.000653
900.000000, 0.000695
901.000000, 0.000667
902.000000, 0.000577
903.000000, 0.000550
904.000000, 0.000638
905.000000, 0.000646
906.000000, 0.000609
907.000000, 0.000564
908.000000, 0.000661
909.000000, 0.000651
910.000000, 0.000619
911.000000, 0.000585
912.000000, 0.000593
913.000000, 0.000666
914.000000, 0.000590
915.000000, 0.000697
916.000000, 0.000706
917.000000, 0.000661
918.000000, 0.000718
919.000000, 0.000728
920.000000, 0.000666
921.000000, 0.000644
922.000000, 0.000736
923.000000, 0.000715
924.000000, 0.000698
925.000000, 0.000700
926.000000, 0.000638
927.000000, 0.000540
928.000000, 0.000680
929.000000, 0.000582
930.000000, 0.000672
931.000000, 0.000590
932.000000, 0.000593
933.000000, 0.000567
934.000000, 0.000531
935.000000, 0.000619
936.000000, 0.000535
937.000000, 0.000579
938.000000, 0.000619
939.000000, 0.000576
940.000000, 0.000605
941.000000, 0.000690
942.000000, 0.000664
943.000000, 0.000746
944.000000, 0.000768
945.000000, 0.000750
946.000000, 0.000730
947.000000, 0.000717
948.000000, 0.000737
949.000000, 0.000757
950.000000, 0.000695
951.000000, 0.000706
952.000000, 0.000692
953.000000, 0.000718
954.000000, 0.000674
955.000000, 0.000650
956.000000, 0.000536
957.000000, 0.000579
958.000000, 0.000485
959.000000, 0.000485
960.000000, 0.000523
961.000000, 0.000501
962.000000, 0.000612
963.000000, 0.000515
964.000000, 0.000638
965.000000, 0.000557
966.000000, 0.000667
967.000000, 0.000686
968.000000, 0.000790
969.000000, 0.000768
970.000000, 0.000819
971.000000, 0.000852
972.000000, 0.000833
973.000000, 0.000868
974.000000, 0.000833
975.000000, 0.000869
976.000000, 0.000755
977.000000, 0.000721
978.000000, 0.000772
979.000000, 0.000710
980.000000, 0.000689
981.000000, 0.000563
982.000000, 0.000526
983.000000, 0.000608
984.000000, 0.000542
985.000000, 0.000458
986.000000, 0.000524
987.000000, 0.000621
988.000000, 0.000585
989.000000, 0.000577
990.000000, 0.000665
991.000000, 0.000697
992.000000, 0.000812
993.000000, 0.000897
994.000000, 0.000945
995.000000, 0.000989
996.000000, 0.000997
997.000000, 0.001008
998.000000, 0.001018
999.000000, 0.000905
1000.000000, 0.000883
1001.000000, 0.000839
1002.000000, 0.000726
1003.000000, 0.000662
1004.000000, 0.000667
1005.000000, 0.000621
1006.000000, 0.000529
1007.000000, 0.000424
1008.000000, 0.000507
1009.000000, 0.000388
1010.000000, 0.000406
1011.000000, 0.000459
1012.000000, 0.000470
1013.000000, 0.000638
1014.000000, 0.000769
1015.000000, 0.000879
1016.000000, 0.000976
1017.000000, 0.001171
1018.000000, 0.001264
1019.000000, 0.001353
1020.000000, 0.001402
1021.000000, 0.001527
1022.000000, 0.001380
1023.000000, 0.001294
1024.000000, 0.001204
1025.000000, 0.001011
1026.000000, 0.000856
1027.000000, 0.000786
1028.000000, 0.000629
1029.000000, 0.000580
1030.000000, 0.000482
1031.000000, 0.000475
1032.000000, 0.000506
1033.000000, 0.000704
1034.000000, 0.000744
1035.000000, 0.000954
1036.000000, 0.001139
1037.000000, 0.001222
1038.000000, 0.001353
1039.000000, 0.001511
1040.000000, 0.001683
1041.000000, 0.001570
1042.000000, 0.001543
1043.000000, 0.001275
1044.000000, 0.001196
1045.000000, 0.000960
1046.000000, 0.000732
1047.000000, 0.000649
1048.000000, 0.000506
1049.000000, 0.000462
1050.000000, 0.000464
1051.000000, 0.000415
1052.000000, 0.000484
1053.000000, 0.000574
1054.000000, 0.000678
1055.000000, 0.000886
1056.000000, 0.000984
1057.000000, 0.001048
1058.000000, 0.001216
1059.000000, 0.001147
1060.000000, 0.001101
1061.000000, 0.000946
1062.000000, 0.000865
1063.000000, 0.000699
1064.000000, 0.000574
1065.000000, 0.000483
1066.000000, 0.000402
1067.000000, 0.000349
1068.000000, 0.000301
1069.000000, 0.000272
1070.000000, 0.000216
1071.000000, 0.000249
1072.000000, 0.000263
1073.000000, 0.000246
1074.000000, 0.000203
1075.000000, 0.000248
1076.000000, 0.000254
1077.000000, 0.000301
1078.000000, 0.000270
1079.000000, 0.000249
1080.000000, 0.000286
1081.000000, 0.000254
1082.000000, 0.000225
1083.000000, 0.000184
1084.000000, 0.000235
1085.000000, 0.000232
1086.000000, 0.000301
1087.000000, 0.000267
1088.000000, 0.000278
1089.000000, 0.000137
1090.000000, 0.000195
1091.000000, 0.000224
1092.000000, 0.000260
1093.000000, 0.000250
1094.000000, 0.000179
1095.000000, 0.000230
1096.000000, 0.000273
