# Wavelength  (nm), Transmission (%)
200.000000, 0.000117
201.000000, 0.000112
202.000000, 0.000115
203.000000, 0.000121
204.000000, 0.000095
205.000000, 0.000075
206.000000, 0.000046
207.000000, 0.000065
208.000000, 0.000068
209.000000, 0.000076
210.000000, 0.000048
211.000000, 0.000024
212.000000, 0.000007
213.000000, 0.000005
214.000000, 0.000007
215.000000, 0.000026
216.000000, 0.000017
217.000000, 0.000009
218.000000, 0.000005
219.000000, 0.000018
220.000000, 0.000023
221.000000, 0.000042
222.000000, 0.000019
223.000000, 0.000012
224.000000, 0.000001
225.000000, 0.000008
226.000000, 0.000009
227.000000, 0.000005
228.000000, 0.000015
229.000000, 0.000030
230.000000, 0.000035
231.000000, 0.000009
232.000000, 0.000007
233.000000, 0.000018
234.000000, 0.000004
235.000000, 0.000018
236.000000, 0.000036
237.000000, 0.000031
238.000000, 0.000016
239.000000, 0.000001
240.000000, 0.000001
241.000000, 0.000012
242.000000, 0.000018
243.000000, 0.000011
244.000000, 0.000002
245.000000, 0.000001
246.000000, 0.000003
247.000000, 0.000013
248.000000, 0.000026
249.000000, 0.000020
250.000000, 0.000013
251.000000, 0.000011
252.000000, 0.000023
253.000000, 0.000030
254.000000, 0.000024
255.000000, 0.000012
256.000000, 0.000007
257.000000, 0.000008
258.000000, 0.000016
259.000000, 0.000021
260.000000, 0.000020
261.000000, 0.000013
262.000000, 0.000004
263.000000, 0.000001
264.000000, 0.000016
265.000000, 0.000028
266.000000, 0.000024
267.000000, 0.000005
268.000000, 0.000004
269.000000, 0.000006
270.000000, 0.000021
271.000000, 0.000020
272.000000, 0.000026
273.000000, 0.000016
274.000000, 0.000015
275.000000, 0.000012
276.000000, 0.000021
277.000000, 0.000025
278.000000, 0.000032
279.000000, 0.000025
280.000000, 0.000028
281.000000, 0.000015
282.000000, 0.000025
283.000000, 0.000029
284.000000, 0.000039
285.000000, 0.000015
286.000000, 0.000009
287.000000, 0.000002
288.000000, 0.000022
289.000000, 0.000018
290.000000, 0.000018
291.000000, 0.000004
292.000000, 0.000003
293.000000, 0.000001
294.000000, 0.000030
295.000000, 0.000022
296.000000, 0.000024
297.000000, 0.000008
298.000000, 0.000009
299.000000, 0.000002
300.000000, 0.000030
301.000000, 0.000021
302.000000, 0.000023
303.000000, 0.000011
304.000000, 0.000024
305.000000, 0.000033
306.000000, 0.000039
307.000000, 0.000027
308.000000, 0.000024
309.000000, 0.000005
310.000000, 0.000010
311.000000, 0.000005
312.000000, 0.000028
313.000000, 0.000022
314.000000, 0.000032
315.000000, 0.000010
316.000000, 0.000022
317.000000, 0.000021
318.000000, 0.000035
319.000000, 0.000022
320.000000, 0.000002
321.000000, 0.000027
322.000000, 0.000022
323.000000, 0.000019
324.000000, 0.000002
325.000000, 0.000002
326.000000, 0.000018
327.000000, 0.000022
328.000000, 0.000012
329.000000, 0.000012
330.000000, 0.000012
331.000000, 0.000009
332.000000, 0.000007
333.000000, 0.000007
334.000000, 0.000009
335.000000, 0.000018
336.000000, 0.000011
337.000000, 0.000007
338.000000, 0.000020
339.000000, 0.000009
340.000000, 0.000006
341.000000, 0.000014
342.000000, 0.000013
343.000000, 0.000015
344.000000, 0.000023
345.000000, 0.000004
346.000000, 0.000014
347.000000, 0.000013
348.000000, 0.000048
349.000000, 0.000086
350.000000, 0.000144
351.000000, 0.000216
352.000000, 0.000325
353.000000, 0.000468
354.000000, 0.000679
355.000000, 0.000941
356.000000, 0.001307
357.000000, 0.001783
358.000000, 0.002424
359.000000, 0.003254
360.000000, 0.004299
361.000000, 0.005580
362.000000, 0.007142
363.000000, 0.009001
364.000000, 0.011162
365.000000, 0.013613
366.000000, 0.016447
367.000000, 0.019669
368.000000, 0.023262
369.000000, 0.027022
370.000000, 0.030678
371.000000, 0.033985
372.000000, 0.036723
373.000000, 0.038769
374.000000, 0.040147
375.000000, 0.040892
376.000000, 0.041377
377.000000, 0.042110
378.000000, 0.043645
379.000000, 0.046670
380.000000, 0.051429
381.000000, 0.058140
382.000000, 0.066833
383.000000, 0.077382
384.000000, 0.089656
385.000000, 0.103252
386.000000, 0.118333
387.000000, 0.134743
388.000000, 0.152517
389.000000, 0.171647
390.000000, 0.191559
391.000000, 0.211576
392.000000, 0.231474
393.000000, 0.251362
394.000000, 0.271515
395.000000, 0.291898
396.000000, 0.312411
397.000000, 0.331909
398.000000, 0.350552
399.000000, 0.368851
400.000000, 0.387148
401.000000, 0.404386
402.000000, 0.419903
403.000000, 0.433965
404.000000, 0.446306
405.000000, 0.456585
406.000000, 0.465808
407.000000, 0.474844
408.000000, 0.483886
409.000000, 0.491086
410.000000, 0.497398
411.000000, 0.503290
412.000000, 0.510227
413.000000, 0.517985
414.000000, 0.526401
415.000000, 0.534380
416.000000, 0.541930
417.000000, 0.549904
418.000000, 0.559855
419.000000, 0.571163
420.000000, 0.583063
421.000000, 0.594051
422.000000, 0.604466
423.000000, 0.614924
424.000000, 0.626411
425.000000, 0.639094
426.000000, 0.651678
427.000000, 0.662221
428.000000, 0.670949
429.000000, 0.678629
430.000000, 0.686970
431.000000, 0.695078
432.000000, 0.701894
433.000000, 0.705986
434.000000, 0.707749
435.000000, 0.708215
436.000000, 0.709542
437.000000, 0.711430
438.000000, 0.712996
439.000000, 0.713855
440.000000, 0.714308
441.000000, 0.716829
442.000000, 0.721839
443.000000, 0.730149
444.000000, 0.739563
445.000000, 0.749332
446.000000, 0.759439
447.000000, 0.771468
448.000000, 0.786195
449.000000, 0.803108
450.000000, 0.820101
451.000000, 0.835409
452.000000, 0.849373
453.000000, 0.863346
454.000000, 0.878834
455.000000, 0.894639
456.000000, 0.909306
457.000000, 0.921803
458.000000, 0.932487
459.000000, 0.943164
460.000000, 0.954077
461.000000, 0.965104
462.000000, 0.974019
463.000000, 0.979203
464.000000, 0.981768
465.000000, 0.983667
466.000000, 0.986566
467.000000, 0.989617
468.000000, 0.990836
469.000000, 0.989666
470.000000, 0.986421
471.000000, 0.983388
472.000000, 0.981021
473.000000, 0.978857
474.000000, 0.976158
475.000000, 0.972199
476.000000, 0.967352
477.000000, 0.963074
478.000000, 0.960097
479.000000, 0.957747
480.000000, 0.953865
481.000000, 0.947620
482.000000, 0.940382
483.000000, 0.934036
484.000000, 0.929831
485.000000, 0.927132
486.000000, 0.924002
487.000000, 0.919863
488.000000, 0.915449
489.000000, 0.910483
490.000000, 0.906020
491.000000, 0.902001
492.000000, 0.898602
493.000000, 0.894907
494.000000, 0.890709
495.000000, 0.887793
496.000000, 0.886741
497.000000, 0.886266
498.000000, 0.884970
499.000000, 0.881890
500.000000, 0.878245
501.000000, 0.875085
502.000000, 0.873791
503.000000, 0.873845
504.000000, 0.873479
505.000000, 0.871782
506.000000, 0.869664
507.000000, 0.868378
508.000000, 0.869146
509.000000, 0.871306
510.000000, 0.873541
511.000000, 0.874958
512.000000, 0.875217
513.000000, 0.875277
514.000000, 0.877059
515.000000, 0.880197
516.000000, 0.883994
517.000000, 0.886411
518.000000, 0.888070
519.000000, 0.890633
520.000000, 0.894998
521.000000, 0.901007
522.000000, 0.906482
523.000000, 0.910348
524.000000, 0.913463
525.000000, 0.917520
526.000000, 0.923871
527.000000, 0.930320
528.000000, 0.936311
529.000000, 0.941606
530.000000, 0.947065
531.000000, 0.954199
532.000000, 0.962085
533.000000, 0.970252
534.000000, 0.978076
535.000000, 0.984723
536.000000, 0.990282
537.000000, 0.995892
538.000000, 1.001500
539.000000, 1.007364
540.000000, 1.013330
541.000000, 1.019064
542.000000, 1.024129
543.000000, 1.027306
544.000000, 1.030296
545.000000, 1.034254
546.000000, 1.038720
547.000000, 1.043257
548.000000, 1.045538
549.000000, 1.045875
550.000000, 1.045821
551.000000, 1.046084
552.000000, 1.047596
553.000000, 1.048922
554.000000, 1.048358
555.000000, 1.044916
556.000000, 1.040225
557.000000, 1.038334
558.000000, 1.037169
559.000000, 1.034704
560.000000, 1.029919
561.000000, 1.025309
562.000000, 1.020613
563.000000, 1.016388
564.000000, 1.011516
565.000000, 1.006092
566.000000, 1.000832
567.000000, 0.996050
568.000000, 0.991115
569.000000, 0.985835
570.000000, 0.979606
571.000000, 0.974347
572.000000, 0.969336
573.000000, 0.964094
574.000000, 0.958252
575.000000, 0.951808
576.000000, 0.946431
577.000000, 0.942337
578.000000, 0.937645
579.000000, 0.932389
580.000000, 0.926476
581.000000, 0.922736
582.000000, 0.920126
583.000000, 0.917418
584.000000, 0.913966
585.000000, 0.910852
586.000000, 0.909612
587.000000, 0.909245
588.000000, 0.909951
589.000000, 0.911293
590.000000, 0.911773
591.000000, 0.912303
592.000000, 0.913878
593.000000, 0.917552
594.000000, 0.921470
595.000000, 0.924258
596.000000, 0.927118
597.000000, 0.931762
598.000000, 0.937605
599.000000, 0.944858
600.000000, 0.951517
601.000000, 0.958570
602.000000, 0.963960
603.000000, 0.969180
604.000000, 0.974540
605.000000, 0.981320
606.000000, 0.988618
607.000000, 0.996911
608.000000, 1.004186
609.000000, 1.011345
610.000000, 1.017937
611.000000, 1.025967
612.000000, 1.033721
613.000000, 1.042421
614.000000, 1.050561
615.000000, 1.058714
616.000000, 1.065676
617.000000, 1.073873
618.000000, 1.082337
619.000000, 1.091569
620.000000, 1.098582
621.000000, 1.105048
622.000000, 1.110072
623.000000, 1.115816
624.000000, 1.122568
625.000000, 1.130525
626.000000, 1.139460
627.000000, 1.145851
628.000000, 1.151362
629.000000, 1.154825
630.000000, 1.159542
631.000000, 1.164511
632.000000, 1.171135
633.000000, 1.175948
634.000000, 1.178822
635.000000, 1.180135
636.000000, 1.183945
637.000000, 1.190052
638.000000, 1.195262
639.000000, 1.199465
640.000000, 1.202751
641.000000, 1.207889
642.000000, 1.213733
643.000000, 1.220272
644.000000, 1.227149
645.000000, 1.234157
646.000000, 1.240631
647.000000, 1.247382
648.000000, 1.254781
649.000000, 1.262320
650.000000, 1.270419
651.000000, 1.280088
652.000000, 1.290773
653.000000, 1.300171
654.000000, 1.308400
655.000000, 1.320061
656.000000, 1.335010
657.000000, 1.349352
658.000000, 1.361618
659.000000, 1.374705
660.000000, 1.391075
661.000000, 1.410602
662.000000, 1.431658
663.000000, 1.451983
664.000000, 1.471101
665.000000, 1.491772
666.000000, 1.514561
667.000000, 1.541314
668.000000, 1.566559
669.000000, 1.596946
670.000000, 1.625065
671.000000, 1.655259
672.000000, 1.686501
673.000000, 1.721837
674.000000, 1.757809
675.000000, 1.794560
676.000000, 1.832591
677.000000, 1.873996
678.000000, 1.916217
679.000000, 1.962844
680.000000, 2.012324
681.000000, 2.059560
682.000000, 2.103870
683.000000, 2.149701
684.000000, 2.197402
685.000000, 2.252175
686.000000, 2.303223
687.000000, 2.358145
688.000000, 2.406175
689.000000, 2.460476
690.000000, 2.515026
691.000000, 2.574069
692.000000, 2.626823
693.000000, 2.678394
694.000000, 2.728344
695.000000, 2.777873
696.000000, 2.827360
697.000000, 2.874674
698.000000, 2.922367
699.000000, 2.971365
700.000000, 3.021208
701.000000, 3.070912
702.000000, 3.113438
703.000000, 3.161630
704.000000, 3.203374
705.000000, 3.248281
706.000000, 3.284008
707.000000, 3.323098
708.000000, 3.363618
709.000000, 3.403995
710.000000, 3.445570
711.000000, 3.478005
712.000000, 3.507773
713.000000, 3.539201
714.000000, 3.573830
715.000000, 3.607936
716.000000, 3.641456
717.000000, 3.672723
718.000000, 3.705458
719.000000, 3.727254
720.000000, 3.760039
721.000000, 3.784599
722.000000, 3.817463
723.000000, 3.840283
724.000000, 3.861453
725.000000, 3.884699
726.000000, 3.906180
727.000000, 3.932806
728.000000, 3.954855
729.000000, 3.974151
730.000000, 4.001235
731.000000, 4.017862
732.000000, 4.041658
733.000000, 4.062303
734.000000, 4.080217
735.000000, 4.095354
736.000000, 4.110968
737.000000, 4.131427
738.000000, 4.150768
739.000000, 4.166515
740.000000, 4.181217
741.000000, 4.193555
742.000000, 4.204892
743.000000, 4.225630
744.000000, 4.240598
745.000000, 4.259738
746.000000, 4.265866
747.000000, 4.279927
748.000000, 4.286527
749.000000, 4.303762
750.000000, 4.318998
751.000000, 4.336046
752.000000, 4.347461
753.000000, 4.357305
754.000000, 4.370613
755.000000, 4.384617
756.000000, 4.398480
757.000000, 4.412283
758.000000, 4.421497
759.000000, 4.428966
760.000000, 4.431257
761.000000, 4.445340
762.000000, 4.454897
763.000000, 4.467849
764.000000, 4.470389
765.000000, 4.479483
766.000000, 4.487763
767.000000, 4.500955
768.000000, 4.507809
769.000000, 4.519018
770.000000, 4.521323
771.000000, 4.529147
772.000000, 4.530585
773.000000, 4.535314
774.000000, 4.540007
775.000000, 4.547256
776.000000, 4.552271
777.000000, 4.560750
778.000000, 4.567979
779.000000, 4.580659
780.000000, 4.582034
781.000000, 4.586388
782.000000, 4.594579
783.000000, 4.597609
784.000000, 4.594311
785.000000, 4.591645
786.000000, 4.595815
787.000000, 4.598956
788.000000, 4.600920
789.000000, 4.607877
790.000000, 4.617160
791.000000, 4.622519
792.000000, 4.626017
793.000000, 4.625351
794.000000, 4.627071
795.000000, 4.628550
796.000000, 4.629110
797.000000, 4.627597
798.000000, 4.630049
799.000000, 4.631552
800.000000, 4.633751
801.000000, 4.636729
802.000000, 4.635314
803.000000, 4.633648
804.000000, 4.627694
805.000000, 4.627077
806.000000, 4.627908
807.000000, 4.629300
808.000000, 4.630554
809.000000, 4.628458
810.000000, 4.623491
811.000000, 4.623627
812.000000, 4.627730
813.000000, 4.631661
814.000000, 4.630000
815.000000, 4.626862
816.000000, 4.627587
817.000000, 4.622916
818.000000, 4.619469
819.000000, 4.609093
820.000000, 4.612578
821.000000, 4.605673
822.000000, 4.607537
823.000000, 4.600101
824.000000, 4.599522
825.000000, 4.597715
826.000000, 4.604341
827.000000, 4.602356
828.000000, 4.600874
829.000000, 4.594334
830.000000, 4.593477
831.000000, 4.584208
832.000000, 4.580231
833.000000, 4.579314
834.000000, 4.579328
835.000000, 4.574450
836.000000, 4.566873
837.000000, 4.563516
838.000000, 4.561067
839.000000, 4.558629
840.000000, 4.556484
841.000000, 4.550390
842.000000, 4.546356
843.000000, 4.536916
844.000000, 4.530981
845.000000, 4.528726
846.000000, 4.525817
847.000000, 4.517512
848.000000, 4.503909
849.000000, 4.493893
850.000000, 4.493848
851.000000, 4.495676
852.000000, 4.492282
853.000000, 4.485209
854.000000, 4.479066
855.000000, 4.478309
856.000000, 4.470053
857.000000, 4.462242
858.000000, 4.458041
859.000000, 4.458472
860.000000, 4.441974
861.000000, 4.389505
862.000000, 4.302078
863.000000, 4.230086
864.000000, 4.202088
865.000000, 4.231778
866.000000, 4.285468
867.000000, 4.339532
868.000000, 4.333563
869.000000, 4.270762
870.000000, 4.196119
871.000000, 4.156930
872.000000, 4.148340
873.000000, 4.154727
874.000000, 4.180629
875.000000, 4.210463
876.000000, 4.224597
877.000000, 4.216301
878.000000, 4.189125
879.000000, 4.154976
880.000000, 4.131537
881.000000, 4.148222
882.000000, 4.181704
883.000000, 4.208762
884.000000, 4.187669
885.000000, 4.128456
886.000000, 4.077464
887.000000, 4.092531
888.000000, 4.155685
889.000000, 4.177413
890.000000, 4.127852
891.000000, 4.056287
892.000000, 4.028800
893.000000, 4.056202
894.000000, 4.102524
895.000000, 4.136515
896.000000, 4.112072
897.000000, 4.048179
898.000000, 3.994307
899.000000, 3.988103
900.000000, 4.027493
901.000000, 4.063537
902.000000, 4.048703
903.000000, 3.982402
904.000000, 3.930035
905.000000, 3.954827
906.000000, 4.021325
907.000000, 4.041288
908.000000, 4.008518
909.000000, 3.982799
910.000000, 3.974480
911.000000, 3.946846
912.000000, 3.902348
913.000000, 3.895903
914.000000, 3.909529
915.000000, 3.900222
916.000000, 3.865464
917.000000, 3.860182
918.000000, 3.908298
919.000000, 3.972899
920.000000, 3.997799
921.000000, 3.949320
922.000000, 3.880697
923.000000, 3.864486
924.000000, 3.910558
925.000000, 3.942659
926.000000, 3.897556
927.000000, 3.828261
928.000000, 3.817048
929.000000, 3.876873
930.000000, 3.920679
931.000000, 3.872358
932.000000, 3.770635
933.000000, 3.711784
934.000000, 3.743014
935.000000, 3.832232
936.000000, 3.874207
937.000000, 3.843063
938.000000, 3.788101
939.000000, 3.776342
940.000000, 3.792808
941.000000, 3.808165
942.000000, 3.795380
943.000000, 3.753679
944.000000, 3.716211
945.000000, 3.714823
946.000000, 3.742536
947.000000, 3.771153
948.000000, 3.763686
949.000000, 3.723452
950.000000, 3.689356
951.000000, 3.695596
952.000000, 3.717065
953.000000, 3.698351
954.000000, 3.658696
955.000000, 3.643224
956.000000, 3.664253
957.000000, 3.680725
958.000000, 3.697303
959.000000, 3.686779
960.000000, 3.657223
961.000000, 3.634698
962.000000, 3.630899
963.000000, 3.660622
964.000000, 3.677636
965.000000, 3.671380
966.000000, 3.668215
967.000000, 3.665720
968.000000, 3.651139
969.000000, 3.596067
970.000000, 3.563619
971.000000, 3.570614
972.000000, 3.618056
973.000000, 3.647788
974.000000, 3.646955
975.000000, 3.621645
976.000000, 3.613267
977.000000, 3.614236
978.000000, 3.606957
979.000000, 3.600646
980.000000, 3.598809
981.000000, 3.580951
982.000000, 3.535889
983.000000, 3.521473
984.000000, 3.532812
985.000000, 3.550190
986.000000, 3.583072
987.000000, 3.623135
988.000000, 3.637719
989.000000, 3.588738
990.000000, 3.527470
991.000000, 3.526739
992.000000, 3.546008
993.000000, 3.550960
994.000000, 3.502659
995.000000, 3.452568
996.000000, 3.464248
997.000000, 3.497339
998.000000, 3.530834
999.000000, 3.521542
1000.000000, 3.535586
1001.000000, 3.550562
1002.000000, 3.546485
1003.000000, 3.501137
1004.000000, 3.461805
1005.000000, 3.489113
1006.000000, 3.536695
1007.000000, 3.570777
1008.000000, 3.536138
1009.000000, 3.483642
1010.000000, 3.456587
1011.000000, 3.477538
1012.000000, 3.514181
1013.000000, 3.538426
1014.000000, 3.515664
1015.000000, 3.472755
1016.000000, 3.437698
1017.000000, 3.460648
1018.000000, 3.515914
1019.000000, 3.538939
1020.000000, 3.515186
1021.000000, 3.456133
1022.000000, 3.425443
1023.000000, 3.444678
1024.000000, 3.493094
1025.000000, 3.526209
1026.000000, 3.500874
1027.000000, 3.468782
1028.000000, 3.450175
1029.000000, 3.479754
1030.000000, 3.512326
1031.000000, 3.532247
1032.000000, 3.510704
1033.000000, 3.468700
1034.000000, 3.423871
1035.000000, 3.387015
1036.000000, 3.413206
1037.000000, 3.459595
1038.000000, 3.501716
1039.000000, 3.488519
1040.000000, 3.449854
1041.000000, 3.421739
1042.000000, 3.441863
1043.000000, 3.486436
1044.000000, 3.519480
1045.000000, 3.506379
1046.000000, 3.473117
1047.000000, 3.448933
1048.000000, 3.407524
1049.000000, 3.386267
1050.000000, 3.427605
1051.000000, 3.489639
1052.000000, 3.542518
1053.000000, 3.523526
1054.000000, 3.494443
1055.000000, 3.455900
1056.000000, 3.424191
1057.000000, 3.398661
1058.000000, 3.452679
1059.000000, 3.511767
1060.000000, 3.573023
1061.000000, 3.570360
1062.000000, 3.552161
1063.000000, 3.525753
1064.000000, 3.498028
1065.000000, 3.464342
1066.000000, 3.426692
1067.000000, 3.378134
1068.000000, 3.368366
1069.000000, 3.436323
1070.000000, 3.518762
1071.000000, 3.572787
1072.000000, 3.572013
1073.000000, 3.566929
1074.000000, 3.553290
1075.000000, 3.517506
1076.000000, 3.466709
1077.000000, 3.432943
1078.000000, 3.484746
1079.000000, 3.553631
1080.000000, 3.607086
1081.000000, 3.575206
1082.000000, 3.533462
1083.000000, 3.493992
1084.000000, 3.464281
1085.000000, 3.504367
1086.000000, 3.562252
1087.000000, 3.609912
1088.000000, 3.600511
1089.000000, 3.575013
1090.000000, 3.548168
1091.000000, 3.512567
1092.000000, 3.490503
1093.000000, 3.555219
1094.000000, 3.620209
1095.000000, 3.683209
1096.000000, 3.662294
1097.000000, 3.629709
1098.000000, 3.579902
1099.000000, 3.544619
1100.000000, 3.516670
1101.000000, 3.523419
