# Wavelength  (nm), Transmission (%)
200.000000, 0.005479
201.000000, 0.005389
202.000000, 0.005262
203.000000, 0.005057
204.000000, 0.004983
205.000000, 0.004805
206.000000, 0.004678
207.000000, 0.004558
208.000000, 0.004389
209.000000, 0.004253
210.000000, 0.004182
211.000000, 0.004023
212.000000, 0.003909
213.000000, 0.003867
214.000000, 0.003781
215.000000, 0.003708
216.000000, 0.003670
217.000000, 0.003629
218.000000, 0.003603
219.000000, 0.003585
220.000000, 0.003605
221.000000, 0.003590
222.000000, 0.003557
223.000000, 0.003603
224.000000, 0.003632
225.000000, 0.003670
226.000000, 0.003685
227.000000, 0.003688
228.000000, 0.003701
229.000000, 0.003706
230.000000, 0.003721
231.000000, 0.003729
232.000000, 0.003723
233.000000, 0.003718
234.000000, 0.003700
235.000000, 0.003670
236.000000, 0.003643
237.000000, 0.003612
238.000000, 0.003579
239.000000, 0.003535
240.000000, 0.003494
241.000000, 0.003467
242.000000, 0.003462
243.000000, 0.003414
244.000000, 0.003347
245.000000, 0.003336
246.000000, 0.003307
247.000000, 0.003284
248.000000, 0.003209
249.000000, 0.003202
250.000000, 0.003158
251.000000, 0.003121
252.000000, 0.003093
253.000000, 0.003062
254.000000, 0.003058
255.000000, 0.003009
256.000000, 0.003000
257.000000, 0.002936
258.000000, 0.002896
259.000000, 0.002864
260.000000, 0.002859
261.000000, 0.002791
262.000000, 0.002749
263.000000, 0.002771
264.000000, 0.002715
265.000000, 0.002689
266.000000, 0.002665
267.000000, 0.002675
268.000000, 0.002609
269.000000, 0.002609
270.000000, 0.002614
271.000000, 0.002561
272.000000, 0.002571
273.000000, 0.002551
274.000000, 0.002546
275.000000, 0.002540
276.000000, 0.002537
277.000000, 0.002470
278.000000, 0.002459
279.000000, 0.002461
280.000000, 0.002462
281.000000, 0.002435
282.000000, 0.002436
283.000000, 0.002404
284.000000, 0.002367
285.000000, 0.002400
286.000000, 0.002330
287.000000, 0.002322
288.000000, 0.002250
289.000000, 0.002242
290.000000, 0.002221
291.000000, 0.002182
292.000000, 0.002104
293.000000, 0.002004
294.000000, 0.002018
295.000000, 0.001914
296.000000, 0.001856
297.000000, 0.001766
298.000000, 0.001701
299.000000, 0.001620
300.000000, 0.001507
301.000000, 0.001435
302.000000, 0.001357
303.000000, 0.001312
304.000000, 0.001170
305.000000, 0.001152
306.000000, 0.001051
307.000000, 0.000963
308.000000, 0.000892
309.000000, 0.000861
310.000000, 0.000786
311.000000, 0.000723
312.000000, 0.000637
313.000000, 0.000581
314.000000, 0.000559
315.000000, 0.000509
316.000000, 0.000449
317.000000, 0.000446
318.000000, 0.000389
319.000000, 0.000346
320.000000, 0.000329
321.000000, 0.000283
322.000000, 0.000254
323.000000, 0.000226
324.000000, 0.000227
325.000000, 0.000217
326.000000, 0.000211
327.000000, 0.000179
328.000000, 0.000177
329.000000, 0.000146
330.000000, 0.000126
331.000000, 0.000139
332.000000, 0.000162
333.000000, 0.000125
334.000000, 0.000118
335.000000, 0.000112
336.000000, 0.000106
337.000000, 0.000107
338.000000, 0.000109
339.000000, 0.000102
340.000000, 0.000105
341.000000, 0.000093
342.000000, 0.000088
343.000000, 0.000097
344.000000, 0.000100
345.000000, 0.000088
346.000000, 0.000111
347.000000, 0.000095
348.000000, 0.000097
349.000000, -0.000036
350.000000, 0.000100
351.000000, 0.000130
352.000000, 0.000121
353.000000, 0.000113
354.000000, 0.000119
355.000000, 0.000103
356.000000, 0.000133
357.000000, 0.000117
358.000000, 0.000116
359.000000, 0.000131
360.000000, 0.000129
361.000000, 0.000148
362.000000, 0.000195
363.000000, 0.000215
364.000000, 0.000284
365.000000, 0.000386
366.000000, 0.000560
367.000000, 0.000842
368.000000, 0.001444
369.000000, 0.002693
370.000000, 0.005363
371.000000, 0.011104
372.000000, 0.022610
373.000000, 0.044593
374.000000, 0.085559
375.000000, 0.161073
376.000000, 0.288903
377.000000, 0.481721
378.000000, 0.754908
379.000000, 1.175544
380.000000, 1.810537
381.000000, 2.622453
382.000000, 3.450208
383.000000, 4.303540
384.000000, 5.563673
385.000000, 7.731667
386.000000, 10.854288
387.000000, 14.393744
388.000000, 17.434359
389.000000, 19.722866
390.000000, 21.438631
391.000000, 22.535522
392.000000, 23.262159
393.000000, 24.636559
394.000000, 27.860191
395.000000, 33.110836
396.000000, 38.373596
397.000000, 40.741539
398.000000, 39.714344
399.000000, 38.170826
400.000000, 39.183193
401.000000, 43.788044
402.000000, 50.120060
403.000000, 54.413628
404.000000, 54.212292
405.000000, 51.124168
406.000000, 49.050556
407.000000, 50.292439
408.000000, 54.654682
409.000000, 59.705555
410.000000, 62.555885
411.000000, 61.893803
412.000000, 59.683014
413.000000, 58.790745
414.000000, 60.865952
415.000000, 65.382660
416.000000, 70.062691
417.000000, 71.632317
418.000000, 69.021515
419.000000, 64.264503
420.000000, 60.347321
421.000000, 59.215443
422.000000, 61.440487
423.000000, 66.167366
424.000000, 71.578606
425.000000, 75.379189
426.000000, 76.128784
427.000000, 74.412178
428.000000, 72.250816
429.000000, 71.320908
430.000000, 72.218658
431.000000, 74.376854
432.000000, 76.561646
433.000000, 77.408188
434.000000, 76.250443
435.000000, 73.469925
436.000000, 70.411865
437.000000, 68.098465
438.000000, 67.279579
439.000000, 67.962669
440.000000, 69.807510
441.000000, 72.162643
442.000000, 74.395683
443.000000, 75.911675
444.000000, 76.563988
445.000000, 76.641640
446.000000, 76.450241
447.000000, 76.403893
448.000000, 76.769058
449.000000, 77.501503
450.000000, 78.427414
451.000000, 79.225014
452.000000, 79.756721
453.000000, 79.776566
454.000000, 79.214638
455.000000, 78.230766
456.000000, 77.016029
457.000000, 75.890106
458.000000, 75.099297
459.000000, 74.871140
460.000000, 75.386505
461.000000, 76.602646
462.000000, 78.377411
463.000000, 80.343613
464.000000, 82.187904
465.000000, 83.389977
466.000000, 83.672714
467.000000, 82.998825
468.000000, 81.721046
469.000000, 80.287292
470.000000, 79.068855
471.000000, 78.457581
472.000000, 78.527626
473.000000, 79.162560
474.000000, 80.204544
475.000000, 81.318169
476.000000, 82.305077
477.000000, 82.936424
478.000000, 83.237915
479.000000, 83.291405
480.000000, 83.306816
481.000000, 83.471802
482.000000, 83.825127
483.000000, 84.276688
484.000000, 84.682587
485.000000, 84.847931
486.000000, 84.505379
487.000000, 83.678711
488.000000, 82.469124
489.000000, 81.195518
490.000000, 80.032761
491.000000, 79.357132
492.000000, 79.224945
493.000000, 79.649071
494.000000, 80.523300
495.000000, 81.741783
496.000000, 82.913002
497.000000, 83.817627
498.000000, 84.387436
499.000000, 84.582397
500.000000, 84.469193
501.000000, 84.255386
502.000000, 84.163048
503.000000, 84.278694
504.000000, 84.593582
505.000000, 85.142700
506.000000, 85.750595
507.000000, 86.250008
508.000000, 86.574379
509.000000, 86.660957
510.000000, 86.544121
511.000000, 86.311676
512.000000, 86.112282
513.000000, 85.993973
514.000000, 85.984543
515.000000, 86.096024
516.000000, 86.196899
517.000000, 86.248276
518.000000, 86.142754
519.000000, 85.918747
520.000000, 85.621262
521.000000, 85.384567
522.000000, 85.223961
523.000000, 85.298401
524.000000, 85.494202
525.000000, 85.788383
526.000000, 86.114693
527.000000, 86.296936
528.000000, 86.291069
529.000000, 86.148773
530.000000, 85.839455
531.000000, 85.548569
532.000000, 85.378555
533.000000, 85.343079
534.000000, 85.457916
535.000000, 85.575890
536.000000, 85.631783
537.000000, 85.606995
538.000000, 85.359970
539.000000, 85.058136
540.000000, 84.784874
541.000000, 84.598595
542.000000, 84.436272
543.000000, 84.199593
544.000000, 83.716362
545.000000, 83.028259
546.000000, 82.509628
547.000000, 81.661316
548.000000, 77.653488
549.000000, 65.632912
550.000000, 45.079968
551.000000, 24.420307
552.000000, 9.373827
553.000000, 4.271672
554.000000, 1.732914
555.000000, 0.739381
556.000000, 0.334806
557.000000, 0.159400
558.000000, 0.079556
559.000000, 0.042041
560.000000, 0.023244
561.000000, 0.013433
562.000000, 0.008126
563.000000, 0.005215
564.000000, 0.003530
565.000000, 0.002476
566.000000, 0.001846
567.000000, 0.001415
568.000000, 0.001140
569.000000, 0.000923
570.000000, 0.000770
571.000000, 0.000673
572.000000, 0.000574
573.000000, 0.000500
574.000000, 0.000462
575.000000, 0.000411
576.000000, 0.000363
577.000000, 0.000340
578.000000, 0.000306
579.000000, 0.000265
580.000000, 0.000253
581.000000, 0.000235
582.000000, 0.000222
583.000000, 0.000190
584.000000, 0.000189
585.000000, 0.000171
586.000000, 0.000155
587.000000, 0.000136
588.000000, 0.000141
589.000000, 0.000133
590.000000, 0.000110
591.000000, 0.000107
592.000000, 0.000105
593.000000, 0.000098
594.000000, 0.000091
595.000000, 0.000083
596.000000, 0.000078
597.000000, 0.000089
598.000000, 0.000064
599.000000, 0.000076
600.000000, 0.000059
601.000000, 0.000061
602.000000, 0.000063
603.000000, 0.000066
604.000000, 0.000055
605.000000, 0.000058
606.000000, 0.000054
607.000000, 0.000049
608.000000, 0.000055
609.000000, 0.000043
610.000000, 0.000046
611.000000, 0.000035
612.000000, 0.000038
613.000000, 0.000046
614.000000, 0.000034
615.000000, 0.000030
616.000000, 0.000039
617.000000, 0.000032
618.000000, 0.000039
619.000000, 0.000039
620.000000, 0.000036
621.000000, 0.000027
622.000000, 0.000032
623.000000, 0.000033
624.000000, 0.000030
625.000000, 0.000029
626.000000, 0.000025
627.000000, 0.000023
628.000000, 0.000025
629.000000, 0.000028
630.000000, 0.000023
631.000000, 0.000027
632.000000, 0.000025
633.000000, 0.000019
634.000000, 0.000020
635.000000, 0.000018
636.000000, 0.000021
637.000000, 0.000011
638.000000, 0.000014
639.000000, 0.000022
640.000000, 0.000017
641.000000, 0.000020
642.000000, 0.000013
643.000000, 0.000013
644.000000, 0.000011
645.000000, 0.000013
646.000000, 0.000016
647.000000, 0.000020
648.000000, 0.000012
649.000000, 0.000012
650.000000, 0.000016
651.000000, 0.000015
652.000000, 0.000012
653.000000, 0.000014
654.000000, 0.000012
655.000000, 0.000013
656.000000, 0.000008
657.000000, 0.000014
658.000000, 0.000012
659.000000, 0.000014
660.000000, 0.000014
661.000000, 0.000015
662.000000, 0.000016
663.000000, 0.000020
664.000000, 0.000008
665.000000, 0.000013
666.000000, 0.000010
667.000000, 0.000015
668.000000, 0.000005
669.000000, 0.000023
670.000000, 0.000012
671.000000, 0.000007
672.000000, 0.000006
673.000000, 0.000021
674.000000, 0.000013
675.000000, 0.000015
676.000000, 0.000013
677.000000, 0.000018
678.000000, 0.000011
679.000000, 0.000008
680.000000, 0.000020
681.000000, 0.000006
682.000000, 0.000010
683.000000, 0.000016
684.000000, 0.000006
685.000000, 0.000013
686.000000, 0.000023
687.000000, 0.000010
688.000000, 0.000007
689.000000, 0.000009
690.000000, 0.000018
691.000000, 0.000009
692.000000, 0.000014
693.000000, 0.000029
694.000000, 0.000006
695.000000, 0.000011
696.000000, 0.000021
697.000000, 0.000008
698.000000, 0.000018
699.000000, 0.000008
700.000000, 0.000021
701.000000, 0.000007
702.000000, 0.000010
703.000000, 0.000024
704.000000, 0.000004
705.000000, 0.000008
706.000000, 0.000008
707.000000, 0.000017
708.000000, 0.000006
709.000000, 0.000014
710.000000, 0.000010
711.000000, 0.000022
712.000000, 0.000008
713.000000, 0.000009
714.000000, 0.000011
715.000000, 0.000022
716.000000, 0.000013
717.000000, 0.000010
718.000000, 0.000023
719.000000, 0.000010
720.000000, 0.000006
721.000000, 0.000008
722.000000, 0.000012
723.000000, 0.000020
724.000000, 0.000010
725.000000, 0.000010
726.000000, 0.000014
727.000000, 0.000024
728.000000, 0.000009
729.000000, 0.000015
730.000000, 0.000012
731.000000, 0.000008
732.000000, 0.000031
733.000000, 0.000015
734.000000, 0.000013
735.000000, 0.000014
736.000000, 0.000022
737.000000, 0.000014
738.000000, 0.000017
739.000000, 0.000013
740.000000, 0.000018
741.000000, 0.000007
742.000000, 0.000012
743.000000, 0.000005
744.000000, 0.000015
745.000000, 0.000017
746.000000, 0.000013
747.000000, 0.000014
748.000000, 0.000016
749.000000, 0.000012
750.000000, 0.000031
751.000000, 0.000016
752.000000, 0.000011
753.000000, 0.000013
754.000000, 0.000027
755.000000, 0.000022
756.000000, 0.000016
757.000000, 0.000027
758.000000, 0.000024
759.000000, 0.000038
760.000000, 0.000038
761.000000, 0.000038
762.000000, 0.000037
763.000000, 0.000066
764.000000, 0.000066
765.000000, 0.000080
766.000000, 0.000105
767.000000, 0.000146
768.000000, 0.000210
769.000000, 0.000252
770.000000, 0.000367
771.000000, 0.000535
772.000000, 0.000766
773.000000, 0.001231
774.000000, 0.001895
775.000000, 0.003092
776.000000, 0.005176
777.000000, 0.009382
778.000000, 0.018296
779.000000, 0.041688
780.000000, 0.135950
781.000000, 0.831509
782.000000, 5.287974
783.000000, 10.147790
784.000000, 6.402666
785.000000, 1.886697
786.000000, 0.620697
787.000000, 0.459529
788.000000, 0.430939
789.000000, 0.465825
790.000000, 0.565427
791.000000, 0.767240
792.000000, 1.211189
793.000000, 2.398182
794.000000, 6.712499
795.000000, 19.320730
796.000000, 30.403292
797.000000, 23.041624
798.000000, 6.552826
799.000000, 3.515803
800.000000, 4.256920
801.000000, 4.205189
802.000000, 4.228167
803.000000, 4.326128
804.000000, 4.488533
805.000000, 4.700344
806.000000, 4.932610
807.000000, 5.176656
808.000000, 5.426493
809.000000, 5.680861
810.000000, 5.939396
811.000000, 6.200460
812.000000, 6.456665
813.000000, 6.701597
814.000000, 6.958711
815.000000, 7.191527
816.000000, 7.431492
817.000000, 7.679578
818.000000, 7.951211
819.000000, 8.199043
820.000000, 8.356462
821.000000, 8.420239
822.000000, 8.392717
823.000000, 8.265283
824.000000, 8.076193
825.000000, 7.851928
826.000000, 7.606765
827.000000, 7.395752
828.000000, 7.237999
829.000000, 7.177788
830.000000, 7.241289
831.000000, 7.437519
832.000000, 7.741663
833.000000, 8.161302
834.000000, 8.638971
835.000000, 9.154000
836.000000, 9.703462
837.000000, 10.345046
838.000000, 11.102778
839.000000, 12.226001
840.000000, 13.708104
841.000000, 15.317334
842.000000, 17.200546
843.000000, 19.336439
844.000000, 21.609968
845.000000, 24.107998
846.000000, 26.627699
847.000000, 28.767984
848.000000, 30.123255
849.000000, 30.211290
850.000000, 29.082275
851.000000, 27.268219
852.000000, 24.987032
853.000000, 22.649700
854.000000, 20.441031
855.000000, 18.429535
856.000000, 16.619228
857.000000, 15.125783
858.000000, 13.833529
859.000000, 12.735491
860.000000, 11.870549
861.000000, 11.155302
862.000000, 10.602282
863.000000, 10.235134
864.000000, 10.097651
865.000000, 10.219310
866.000000, 10.626778
867.000000, 11.261157
868.000000, 12.166658
869.000000, 13.293677
870.000000, 14.605255
871.000000, 16.230221
872.000000, 18.181967
873.000000, 20.479519
874.000000, 23.404715
875.000000, 26.983601
876.000000, 31.127680
877.000000, 35.931576
878.000000, 41.386593
879.000000, 46.585430
880.000000, 51.097000
881.000000, 53.665436
882.000000, 53.297131
883.000000, 50.439453
884.000000, 45.889683
885.000000, 40.762768
886.000000, 35.710651
887.000000, 30.938005
888.000000, 26.755604
889.000000, 23.426407
890.000000, 20.560457
891.000000, 18.267670
892.000000, 16.412119
893.000000, 14.890282
894.000000, 13.672527
895.000000, 12.786119
896.000000, 12.119877
897.000000, 11.657519
898.000000, 11.375650
899.000000, 11.236140
900.000000, 11.242287
901.000000, 11.389514
902.000000, 11.658263
903.000000, 12.029345
904.000000, 12.563690
905.000000, 13.202921
906.000000, 14.076239
907.000000, 15.167716
908.000000, 16.427086
909.000000, 17.973120
910.000000, 19.837902
911.000000, 22.050951
912.000000, 24.804394
913.000000, 28.178915
914.000000, 32.085392
915.000000, 36.785049
916.000000, 42.244179
917.000000, 48.093719
918.000000, 54.566120
919.000000, 60.842506
920.000000, 65.932915
921.000000, 69.246117
922.000000, 69.874405
923.000000, 68.115959
924.000000, 64.506577
925.000000, 59.316998
926.000000, 53.618477
927.000000, 48.324181
928.000000, 43.314236
929.000000, 39.002724
930.000000, 35.325855
931.000000, 32.182293
932.000000, 29.484564
933.000000, 27.359486
934.000000, 25.630306
935.000000, 24.182119
936.000000, 23.096012
937.000000, 22.208817
938.000000, 21.532671
939.000000, 21.101477
940.000000, 20.841141
941.000000, 20.753775
942.000000, 20.856075
943.000000, 21.107611
944.000000, 21.530920
945.000000, 22.154495
946.000000, 22.932592
947.000000, 23.933897
948.000000, 25.151440
949.000000, 26.560884
950.000000, 28.302872
951.000000, 30.429178
952.000000, 32.823547
953.000000, 35.608788
954.000000, 38.882298
955.000000, 42.584263
956.000000, 46.741020
957.000000, 51.509178
958.000000, 56.646473
959.000000, 61.963238
960.000000, 67.223587
961.000000, 72.277985
962.000000, 76.437614
963.000000, 79.544899
964.000000, 81.080780
965.000000, 80.867180
966.000000, 79.127464
967.000000, 75.992790
968.000000, 72.047081
969.000000, 67.417358
970.000000, 62.576157
971.000000, 57.882172
972.000000, 53.446751
973.000000, 49.416100
974.000000, 45.822529
975.000000, 42.638660
976.000000, 39.774735
977.000000, 37.323997
978.000000, 35.225849
979.000000, 33.481651
980.000000, 32.001274
981.000000, 30.820396
982.000000, 29.736206
983.000000, 28.908813
984.000000, 28.308681
985.000000, 27.859726
986.000000, 27.533758
987.000000, 27.382738
988.000000, 27.358845
989.000000, 27.524895
990.000000, 27.743092
991.000000, 28.189165
992.000000, 28.768169
993.000000, 29.488724
994.000000, 30.361530
995.000000, 31.418541
996.000000, 32.693550
997.000000, 34.139061
998.000000, 35.827057
999.000000, 37.689034
1000.000000, 39.759315
1001.000000, 42.167728
1002.000000, 44.976418
1003.000000, 47.801643
1004.000000, 51.110680
1005.000000, 54.550941
1006.000000, 58.149181
1007.000000, 62.024837
1008.000000, 66.032303
1009.000000, 69.686577
1010.000000, 73.168022
1011.000000, 76.261971
1012.000000, 78.715622
1013.000000, 80.370941
1014.000000, 81.171722
1015.000000, 81.249199
1016.000000, 80.288574
1017.000000, 78.473572
1018.000000, 76.111671
1019.000000, 73.385658
1020.000000, 70.110931
1021.000000, 66.807541
1022.000000, 63.606464
1023.000000, 60.323978
1024.000000, 57.192146
1025.000000, 54.236454
1026.000000, 51.560764
1027.000000, 49.050076
1028.000000, 46.800770
1029.000000, 44.832878
1030.000000, 43.005856
1031.000000, 41.475281
1032.000000, 40.119350
1033.000000, 38.914825
1034.000000, 37.852921
1035.000000, 37.060623
1036.000000, 36.352470
1037.000000, 35.792889
1038.000000, 35.394623
1039.000000, 35.079708
1040.000000, 34.893738
1041.000000, 34.879936
1042.000000, 34.973915
1043.000000, 35.167549
1044.000000, 35.474731
1045.000000, 35.904442
1046.000000, 36.495991
1047.000000, 37.243797
1048.000000, 38.071373
1049.000000, 39.002590
1050.000000, 40.126221
1051.000000, 41.362797
1052.000000, 42.750462
1053.000000, 44.440315
1054.000000, 46.105186
1055.000000, 48.038780
1056.000000, 50.080193
1057.000000, 52.215130
1058.000000, 54.618126
1059.000000, 57.254486
1060.000000, 59.869671
1061.000000, 62.663971
1062.000000, 65.495598
1063.000000, 68.361671
1064.000000, 71.117722
1065.000000, 73.829178
1066.000000, 76.533531
1067.000000, 78.561867
1068.000000, 80.549416
1069.000000, 82.163277
1070.000000, 83.212975
1071.000000, 83.763466
1072.000000, 83.895523
1073.000000, 83.450691
1074.000000, 82.594666
1075.000000, 81.388275
1076.000000, 79.859055
1077.000000, 77.987457
1078.000000, 75.830833
1079.000000, 73.571930
1080.000000, 71.211746
1081.000000, 68.885200
1082.000000, 66.551025
1083.000000, 64.301872
