# Wavelength  (nm), Transmission (%)
200.000000, -0.000018
201.000000, -0.000016
202.000000, -0.000014
203.000000, -0.000011
204.000000, -0.000014
205.000000, -0.000015
206.000000, -0.000014
207.000000, -0.000004
208.000000, -0.000014
209.000000, -0.000013
210.000000, 0.000003
211.000000, -0.000010
212.000000, -0.000007
213.000000, 0.000005
214.000000, -0.000013
215.000000, 0.000001
216.000000, -0.000006
217.000000, 0.000000
218.000000, -0.000001
219.000000, -0.000018
220.000000, 0.000001
221.000000, -0.000004
222.000000, -0.000010
223.000000, 0.000001
224.000000, 0.000004
225.000000, -0.000012
226.000000, 0.000006
227.000000, 0.000004
228.000000, -0.000000
229.000000, 0.000006
230.000000, 0.000004
231.000000, 0.000002
232.000000, 0.000001
233.000000, 0.000007
234.000000, 0.000004
235.000000, 0.000003
236.000000, 0.000002
237.000000, 0.000001
238.000000, 0.000016
239.000000, 0.000002
240.000000, -0.000000
241.000000, 0.000003
242.000000, 0.000003
243.000000, 0.000013
244.000000, 0.000002
245.000000, 0.000001
246.000000, 0.000015
247.000000, 0.000004
248.000000, 0.000009
249.000000, 0.000001
250.000000, 0.000011
251.000000, 0.000004
252.000000, 0.000004
253.000000, 0.000002
254.000000, 0.000001
255.000000, -0.000003
256.000000, 0.000005
257.000000, -0.000001
258.000000, 0.000004
259.000000, 0.000015
260.000000, 0.000001
261.000000, 0.000006
262.000000, 0.000003
263.000000, 0.000000
264.000000, 0.000007
265.000000, 0.000005
266.000000, 0.000008
267.000000, 0.000015
268.000000, -0.000000
269.000000, 0.000010
270.000000, 0.000011
271.000000, 0.000004
272.000000, 0.000006
273.000000, 0.000013
274.000000, 0.000001
275.000000, 0.000005
276.000000, 0.000016
277.000000, 0.000002
278.000000, 0.000004
279.000000, 0.000007
280.000000, 0.000016
281.000000, 0.000009
282.000000, 0.000013
283.000000, 0.000013
284.000000, 0.000006
285.000000, 0.000011
286.000000, 0.000018
287.000000, 0.000005
288.000000, 0.000007
289.000000, 0.000014
290.000000, 0.000011
291.000000, 0.000017
292.000000, -0.000006
293.000000, 0.000005
294.000000, 0.000023
295.000000, 0.000003
296.000000, 0.000017
297.000000, 0.000008
298.000000, 0.000001
299.000000, 0.000015
300.000000, 0.000002
301.000000, 0.000022
302.000000, 0.000008
303.000000, 0.000011
304.000000, 0.000022
305.000000, 0.000003
306.000000, 0.000004
307.000000, 0.000006
308.000000, 0.000005
309.000000, 0.000028
310.000000, -0.000002
311.000000, 0.000004
312.000000, -0.000001
313.000000, 0.000002
314.000000, 0.000002
315.000000, 0.000015
316.000000, 0.000001
317.000000, 0.000007
318.000000, 0.000006
319.000000, 0.000005
320.000000, 0.000021
321.000000, 0.000000
322.000000, 0.000005
323.000000, 0.000009
324.000000, 0.000009
325.000000, 0.000025
326.000000, 0.000001
327.000000, 0.000001
328.000000, -0.000002
329.000000, 0.000021
330.000000, 0.000013
331.000000, -0.000001
332.000000, 0.000019
333.000000, 0.000007
334.000000, 0.000008
335.000000, 0.000004
336.000000, 0.000000
337.000000, 0.000002
338.000000, 0.000005
339.000000, 0.000008
340.000000, -0.000004
341.000000, 0.000005
342.000000, -0.000001
343.000000, 0.000007
344.000000, -0.000002
345.000000, 0.000006
346.000000, 0.000003
347.000000, 0.000008
348.000000, 0.000015
349.000000, -0.000126
350.000000, -0.000011
351.000000, 0.000005
352.000000, 0.000010
353.000000, -0.000014
354.000000, 0.000003
355.000000, -0.000014
356.000000, -0.000000
357.000000, -0.000004
358.000000, -0.000009
359.000000, 0.000009
360.000000, -0.000008
361.000000, 0.000002
362.000000, 0.000009
363.000000, -0.000004
364.000000, 0.000007
365.000000, 0.000003
366.000000, 0.000003
367.000000, -0.000007
368.000000, 0.000001
369.000000, -0.000001
370.000000, 0.000004
371.000000, -0.000012
372.000000, 0.000003
373.000000, 0.000001
374.000000, -0.000001
375.000000, 0.000009
376.000000, -0.000002
377.000000, -0.000010
378.000000, -0.000001
379.000000, -0.000004
380.000000, 0.000010
381.000000, -0.000001
382.000000, -0.000000
383.000000, -0.000004
384.000000, 0.000005
385.000000, 0.000004
386.000000, 0.000005
387.000000, 0.000004
388.000000, -0.000014
389.000000, -0.000001
390.000000, 0.000002
391.000000, 0.000003
392.000000, -0.000001
393.000000, 0.000004
394.000000, -0.000009
395.000000, 0.000004
396.000000, 0.000003
397.000000, 0.000001
398.000000, 0.000001
399.000000, -0.000010
400.000000, 0.000000
401.000000, 0.000000
402.000000, 0.000003
403.000000, 0.000008
404.000000, -0.000007
405.000000, -0.000004
406.000000, -0.000001
407.000000, 0.000002
408.000000, -0.000004
409.000000, -0.000011
410.000000, -0.000003
411.000000, -0.000002
412.000000, 0.000007
413.000000, -0.000010
414.000000, 0.000002
415.000000, -0.000002
416.000000, -0.000002
417.000000, -0.000008
418.000000, -0.000006
419.000000, -0.000003
420.000000, -0.000004
421.000000, -0.000000
422.000000, 0.000005
423.000000, -0.000005
424.000000, -0.000008
425.000000, 0.000004
426.000000, 0.000002
427.000000, -0.000008
428.000000, -0.000001
429.000000, 0.000006
430.000000, 0.000004
431.000000, -0.000014
432.000000, -0.000003
433.000000, 0.000008
434.000000, -0.000001
435.000000, -0.000008
436.000000, 0.000002
437.000000, -0.000002
438.000000, 0.000003
439.000000, 0.000002
440.000000, 0.000003
441.000000, -0.000011
442.000000, 0.000006
443.000000, 0.000003
444.000000, 0.000001
445.000000, -0.000007
446.000000, 0.000002
447.000000, -0.000004
448.000000, -0.000007
449.000000, -0.000001
450.000000, -0.000003
451.000000, 0.000004
452.000000, 0.000004
453.000000, -0.000002
454.000000, 0.000001
455.000000, 0.000000
456.000000, -0.000002
457.000000, 0.000007
458.000000, 0.000003
459.000000, 0.000011
460.000000, 0.000003
461.000000, 0.000006
462.000000, 0.000000
463.000000, -0.000001
464.000000, 0.000004
465.000000, 0.000002
466.000000, 0.000001
467.000000, 0.000001
468.000000, -0.000000
469.000000, -0.000002
470.000000, 0.000002
471.000000, 0.000000
472.000000, 0.000005
473.000000, 0.000005
474.000000, 0.000001
475.000000, 0.000001
476.000000, 0.000008
477.000000, -0.000002
478.000000, 0.000005
479.000000, 0.000000
480.000000, 0.000006
481.000000, -0.000002
482.000000, 0.000001
483.000000, 0.000003
484.000000, 0.000003
485.000000, 0.000008
486.000000, -0.000000
487.000000, 0.000002
488.000000, 0.000001
489.000000, -0.000002
490.000000, 0.000003
491.000000, -0.000002
492.000000, 0.000004
493.000000, 0.000006
494.000000, -0.000001
495.000000, 0.000001
496.000000, 0.000003
497.000000, -0.000000
498.000000, -0.000001
499.000000, 0.000000
500.000000, -0.000000
501.000000, 0.000004
502.000000, 0.000002
503.000000, 0.000004
504.000000, 0.000003
505.000000, 0.000002
506.000000, -0.000000
507.000000, 0.000001
508.000000, -0.000000
509.000000, 0.000007
510.000000, -0.000002
511.000000, 0.000001
512.000000, -0.000003
513.000000, -0.000004
514.000000, 0.000000
515.000000, -0.000002
516.000000, -0.000002
517.000000, -0.000003
518.000000, 0.000002
519.000000, -0.000002
520.000000, 0.000001
521.000000, -0.000007
522.000000, -0.000002
523.000000, 0.000003
524.000000, 0.000011
525.000000, 0.000001
526.000000, 0.000001
527.000000, 0.000005
528.000000, 0.000004
529.000000, 0.000001
530.000000, 0.000002
531.000000, 0.000008
532.000000, 0.000003
533.000000, 0.000003
534.000000, 0.000005
535.000000, -0.000001
536.000000, -0.000006
537.000000, -0.000003
538.000000, 0.000008
539.000000, 0.000004
540.000000, 0.000001
541.000000, 0.000008
542.000000, 0.000011
543.000000, 0.000003
544.000000, 0.000003
545.000000, 0.000001
546.000000, -0.000001
547.000000, 0.000002
548.000000, 0.000006
549.000000, 0.000002
550.000000, 0.000003
551.000000, 0.000000
552.000000, -0.000000
553.000000, 0.000001
554.000000, 0.000002
555.000000, 0.000002
556.000000, 0.000003
557.000000, 0.000001
558.000000, 0.000003
559.000000, -0.000003
560.000000, 0.000001
561.000000, 0.000007
562.000000, -0.000002
563.000000, 0.000002
564.000000, -0.000003
565.000000, -0.000000
566.000000, 0.000005
567.000000, -0.000004
568.000000, 0.000009
569.000000, -0.000004
570.000000, -0.000003
571.000000, -0.000004
572.000000, 0.000005
573.000000, -0.000003
574.000000, -0.000007
575.000000, 0.000003
576.000000, 0.000002
577.000000, 0.000004
578.000000, 0.000004
579.000000, -0.000005
580.000000, -0.000009
581.000000, -0.000007
582.000000, 0.000005
583.000000, 0.000001
584.000000, -0.000008
585.000000, 0.000005
586.000000, -0.000001
587.000000, -0.000005
588.000000, -0.000001
589.000000, -0.000000
590.000000, -0.000004
591.000000, -0.000001
592.000000, 0.000005
593.000000, -0.000003
594.000000, 0.000004
595.000000, 0.000000
596.000000, -0.000000
597.000000, 0.000005
598.000000, -0.000007
599.000000, -0.000002
600.000000, 0.000008
601.000000, -0.000009
602.000000, -0.000003
603.000000, 0.000013
604.000000, 0.000005
605.000000, 0.000006
606.000000, 0.000003
607.000000, 0.000010
608.000000, 0.000010
609.000000, 0.000008
610.000000, 0.000007
611.000000, 0.000002
612.000000, 0.000013
613.000000, 0.000007
614.000000, 0.000003
615.000000, 0.000001
616.000000, 0.000004
617.000000, 0.000005
618.000000, 0.000020
619.000000, 0.000003
620.000000, 0.000008
621.000000, 0.000012
622.000000, 0.000012
623.000000, 0.000022
624.000000, 0.000016
625.000000, 0.000014
626.000000, 0.000018
627.000000, 0.000010
628.000000, 0.000011
629.000000, 0.000016
630.000000, 0.000008
631.000000, 0.000015
632.000000, 0.000014
633.000000, 0.000012
634.000000, 0.000018
635.000000, 0.000018
636.000000, 0.000022
637.000000, 0.000030
638.000000, 0.000031
639.000000, 0.000031
640.000000, 0.000040
641.000000, 0.000033
642.000000, 0.000034
643.000000, 0.000027
644.000000, 0.000025
645.000000, 0.000013
646.000000, 0.000020
647.000000, 0.000018
648.000000, 0.000018
649.000000, 0.000016
650.000000, 0.000020
651.000000, 0.000034
652.000000, 0.000044
653.000000, 0.000053
654.000000, 0.000079
655.000000, 0.000083
656.000000, 0.000097
657.000000, 0.000087
658.000000, 0.000066
659.000000, 0.000053
660.000000, 0.000038
661.000000, 0.000029
662.000000, 0.000038
663.000000, 0.000026
664.000000, 0.000027
665.000000, 0.000029
666.000000, 0.000038
667.000000, 0.000054
668.000000, 0.000073
669.000000, 0.000100
670.000000, 0.000149
671.000000, 0.000176
672.000000, 0.000161
673.000000, 0.000127
674.000000, 0.000067
675.000000, 0.000052
676.000000, 0.000045
677.000000, 0.000033
678.000000, 0.000023
679.000000, 0.000025
680.000000, 0.000035
681.000000, 0.000025
682.000000, 0.000035
683.000000, 0.000052
684.000000, 0.000070
685.000000, 0.000129
686.000000, 0.000262
687.000000, 0.000315
688.000000, 0.000264
689.000000, 0.000148
690.000000, 0.000073
691.000000, 0.000045
692.000000, 0.000035
693.000000, 0.000025
694.000000, 0.000021
695.000000, 0.000024
696.000000, 0.000033
697.000000, 0.000030
698.000000, 0.000060
699.000000, 0.000144
700.000000, 0.000303
701.000000, 0.000368
702.000000, 0.000221
703.000000, 0.000085
704.000000, 0.000035
705.000000, 0.000018
706.000000, 0.000027
707.000000, 0.000016
708.000000, 0.000030
709.000000, 0.000125
710.000000, 0.000229
711.000000, 0.000153
712.000000, 0.000038
713.000000, 0.000004
714.000000, 0.000014
715.000000, 0.000006
716.000000, 0.000003
717.000000, 0.000000
718.000000, 0.000010
719.000000, 0.000002
720.000000, 0.000003
721.000000, -0.000004
722.000000, 0.000012
723.000000, -0.000003
724.000000, -0.000000
725.000000, -0.000003
726.000000, 0.000006
727.000000, 0.000015
728.000000, 0.000005
729.000000, 0.000007
730.000000, 0.000004
731.000000, 0.000008
732.000000, -0.000000
733.000000, -0.000000
734.000000, 0.000001
735.000000, 0.000009
736.000000, 0.000008
737.000000, 0.000007
738.000000, -0.000002
739.000000, 0.000000
740.000000, 0.000012
741.000000, -0.000001
742.000000, 0.000006
743.000000, -0.000005
744.000000, 0.000009
745.000000, -0.000003
746.000000, 0.000005
747.000000, 0.000003
748.000000, 0.000005
749.000000, 0.000014
750.000000, 0.000004
751.000000, 0.000003
752.000000, -0.000002
753.000000, 0.000010
754.000000, 0.000002
755.000000, 0.000003
756.000000, 0.000002
757.000000, 0.000003
758.000000, 0.000012
759.000000, -0.000001
760.000000, -0.000000
761.000000, -0.000005
762.000000, -0.000002
763.000000, 0.000009
764.000000, -0.000000
765.000000, 0.000003
766.000000, -0.000007
767.000000, 0.000001
768.000000, 0.000016
769.000000, -0.000002
770.000000, 0.000001
771.000000, -0.000002
772.000000, 0.000013
773.000000, 0.000001
774.000000, 0.000002
775.000000, 0.000001
776.000000, 0.000002
777.000000, 0.000010
778.000000, 0.000007
779.000000, 0.000003
780.000000, 0.000005
781.000000, 0.000001
782.000000, 0.000012
783.000000, -0.000002
784.000000, 0.000003
785.000000, 0.000007
786.000000, 0.000000
787.000000, 0.000012
788.000000, 0.000007
789.000000, 0.000001
790.000000, 0.000002
791.000000, 0.000005
792.000000, 0.000011
793.000000, 0.000001
794.000000, -0.000003
795.000000, 0.000004
796.000000, 0.000003
797.000000, 0.000015
798.000000, 0.000004
799.000000, -0.000008
800.000000, -0.000136
801.000000, -0.000413
802.000000, -0.000533
803.000000, -0.000563
804.000000, -0.000271
805.000000, -0.000351
806.000000, -0.000399
807.000000, -0.000498
808.000000, -0.000447
809.000000, -0.000549
810.000000, -0.000338
811.000000, -0.000254
812.000000, -0.000431
813.000000, -0.000392
814.000000, -0.000087
815.000000, -0.000494
816.000000, -0.000222
817.000000, -0.000502
818.000000, -0.000472
819.000000, -0.000385
820.000000, -0.000207
821.000000, 0.000120
822.000000, -0.000420
823.000000, -0.000201
824.000000, -0.000199
825.000000, -0.000109
826.000000, -0.000222
827.000000, 0.000082
828.000000, -0.000018
829.000000, -0.000244
830.000000, -0.000235
831.000000, -0.000335
832.000000, -0.000207
833.000000, 0.000109
834.000000, -0.000104
835.000000, -0.000145
836.000000, 0.000007
837.000000, -0.000139
838.000000, -0.000030
839.000000, 0.000025
840.000000, -0.000077
841.000000, -0.000001
842.000000, -0.000086
843.000000, -0.000221
844.000000, -0.000138
845.000000, -0.000011
846.000000, 0.000067
847.000000, 0.000047
848.000000, 0.000016
849.000000, 0.000049
850.000000, 0.000001
851.000000, -0.000050
852.000000, 0.000052
853.000000, 0.000093
854.000000, 0.000109
855.000000, -0.000117
856.000000, 0.000122
857.000000, -0.000124
858.000000, 0.000138
859.000000, 0.000101
860.000000, 0.000049
861.000000, 0.000160
862.000000, 0.000079
863.000000, 0.000109
864.000000, 0.000193
865.000000, 0.000069
866.000000, 0.000220
867.000000, 0.000209
868.000000, 0.000154
869.000000, 0.000163
870.000000, 0.000294
871.000000, 0.000158
872.000000, 0.000237
873.000000, 0.000219
874.000000, 0.000218
875.000000, 0.000143
876.000000, 0.000171
877.000000, 0.000246
878.000000, 0.000268
879.000000, 0.000229
880.000000, 0.000231
881.000000, 0.000203
882.000000, 0.000306
883.000000, 0.000248
884.000000, 0.000205
885.000000, 0.000216
886.000000, 0.000228
887.000000, 0.000223
888.000000, 0.000161
889.000000, 0.000211
890.000000, 0.000187
891.000000, 0.000236
892.000000, 0.000223
893.000000, 0.000126
894.000000, 0.000218
895.000000, 0.000193
896.000000, 0.000223
897.000000, 0.000184
898.000000, 0.000205
899.000000, 0.000166
900.000000, 0.000192
901.000000, 0.000180
902.000000, 0.000188
903.000000, 0.000121
904.000000, 0.000211
905.000000, 0.000215
906.000000, 0.000189
907.000000, 0.000148
908.000000, 0.000177
909.000000, 0.000214
910.000000, 0.000211
911.000000, 0.000156
912.000000, 0.000207
913.000000, 0.000130
914.000000, 0.000189
915.000000, 0.000231
916.000000, 0.000206
917.000000, 0.000231
918.000000, 0.000158
919.000000, 0.000203
920.000000, 0.000168
921.000000, 0.000138
922.000000, 0.000109
923.000000, 0.000156
924.000000, 0.000230
925.000000, 0.000129
926.000000, 0.000165
927.000000, 0.000160
928.000000, 0.000219
929.000000, 0.000147
930.000000, 0.000231
931.000000, 0.000235
932.000000, 0.000082
933.000000, 0.000196
934.000000, 0.000161
935.000000, 0.000164
936.000000, 0.000163
937.000000, 0.000171
938.000000, 0.000161
939.000000, 0.000113
940.000000, 0.000100
941.000000, 0.000128
942.000000, 0.000153
943.000000, 0.000136
944.000000, 0.000152
945.000000, 0.000105
946.000000, 0.000195
947.000000, 0.000129
948.000000, 0.000144
949.000000, 0.000150
950.000000, 0.000140
951.000000, 0.000203
952.000000, 0.000214
953.000000, 0.000199
954.000000, 0.000175
955.000000, 0.000170
956.000000, 0.000235
957.000000, 0.000156
958.000000, 0.000207
959.000000, 0.000146
960.000000, 0.000184
961.000000, 0.000202
962.000000, 0.000184
963.000000, 0.000142
964.000000, 0.000105
965.000000, 0.000137
966.000000, 0.000225
967.000000, 0.000106
968.000000, 0.000154
969.000000, 0.000134
970.000000, 0.000114
971.000000, 0.000079
972.000000, 0.000155
973.000000, 0.000171
974.000000, 0.000095
975.000000, 0.000203
976.000000, 0.000134
977.000000, 0.000180
978.000000, 0.000134
979.000000, 0.000187
980.000000, 0.000161
981.000000, 0.000236
982.000000, 0.000114
983.000000, 0.000260
984.000000, 0.000172
985.000000, 0.000155
986.000000, 0.000198
987.000000, 0.000163
988.000000, 0.000179
989.000000, 0.000177
990.000000, 0.000145
991.000000, 0.000177
992.000000, 0.000159
993.000000, 0.000217
994.000000, 0.000162
995.000000, 0.000167
996.000000, 0.000203
997.000000, 0.000092
998.000000, 0.000125
999.000000, 0.000254
1000.000000, 0.000170
1001.000000, 0.000181
1002.000000, 0.000210
1003.000000, 0.000117
1004.000000, 0.000169
1005.000000, 0.000209
1006.000000, 0.000209
1007.000000, 0.000175
1008.000000, 0.000185
1009.000000, 0.000165
1010.000000, 0.000221
1011.000000, 0.000200
1012.000000, 0.000199
1013.000000, 0.000209
1014.000000, 0.000186
1015.000000, 0.000219
1016.000000, 0.000206
1017.000000, 0.000173
1018.000000, 0.000149
1019.000000, 0.000242
1020.000000, 0.000181
1021.000000, 0.000217
1022.000000, 0.000218
1023.000000, 0.000232
1024.000000, 0.000257
1025.000000, 0.000195
1026.000000, 0.000162
1027.000000, 0.000256
1028.000000, 0.000099
1029.000000, 0.000239
1030.000000, 0.000165
1031.000000, 0.000151
1032.000000, 0.000248
1033.000000, 0.000142
1034.000000, 0.000119
1035.000000, 0.000196
1036.000000, 0.000137
1037.000000, 0.000182
1038.000000, 0.000157
1039.000000, 0.000158
1040.000000, 0.000177
1041.000000, 0.000199
1042.000000, 0.000215
1043.000000, 0.000193
1044.000000, 0.000214
1045.000000, 0.000215
1046.000000, 0.000223
1047.000000, 0.000238
1048.000000, 0.000155
1049.000000, 0.000218
1050.000000, 0.000237
1051.000000, 0.000198
1052.000000, 0.000163
1053.000000, 0.000247
1054.000000, 0.000200
1055.000000, 0.000213
1056.000000, 0.000172
1057.000000, 0.000151
1058.000000, 0.000166
1059.000000, 0.000162
1060.000000, 0.000204
1061.000000, 0.000149
1062.000000, 0.000152
1063.000000, 0.000216
1064.000000, 0.000299
1065.000000, 0.000178
1066.000000, 0.000159
1067.000000, 0.000228
1068.000000, 0.000144
1069.000000, 0.000166
1070.000000, 0.000196
1071.000000, 0.000212
1072.000000, 0.000153
1073.000000, 0.000105
1074.000000, 0.000176
1075.000000, 0.000186
1076.000000, 0.000195
1077.000000, 0.000152
1078.000000, 0.000229
1079.000000, 0.000146
1080.000000, 0.000217
1081.000000, 0.000203
1082.000000, 0.000173
1083.000000, 0.000200
1084.000000, 0.000118
1085.000000, 0.000167
1086.000000, 0.000195
1087.000000, 0.000240
1088.000000, 0.000186
1089.000000, 0.000279
1090.000000, 0.000203
1091.000000, 0.000224
1092.000000, 0.000165
