# Wavelength  (nm), Transmission (%)
200.000000, 0.008459
201.000000, 0.067338
202.000000, 0.073703
203.000000, 0.040363
204.000000, 0.024550
205.000000, 0.036134
206.000000, 0.038780
207.000000, 0.046512
208.000000, 0.033685
209.000000, 0.021448
210.000000, 0.028585
211.000000, 0.026697
212.000000, 0.015730
213.000000, 0.031450
214.000000, 0.025176
215.000000, 0.029640
216.000000, 0.020920
217.000000, 0.016698
218.000000, 0.019032
219.000000, 0.017209
220.000000, 0.017081
221.000000, 0.020274
222.000000, 0.014770
223.000000, 0.010851
224.000000, 0.008109
225.000000, 0.008025
226.000000, 0.008879
227.000000, 0.008501
228.000000, 0.007396
229.000000, 0.004693
230.000000, 0.006287
231.000000, 0.010296
232.000000, 0.001901
233.000000, 0.006992
234.000000, 0.008399
235.000000, 0.012266
236.000000, 0.003534
237.000000, 0.006560
238.000000, 0.001296
239.000000, 0.000325
240.000000, 0.006311
241.000000, 0.002075
242.000000, 0.007549
243.000000, 0.006918
244.000000, 0.001322
245.000000, 0.002649
246.000000, 0.004425
247.000000, 0.000554
248.000000, 0.001554
249.000000, 0.002336
250.000000, 0.006815
251.000000, 0.000335
252.000000, 0.004693
253.000000, 0.002460
254.000000, 0.005598
255.000000, 0.005604
256.000000, 0.000561
257.000000, 0.001571
258.000000, 0.003370
259.000000, 0.000562
260.000000, 0.001462
261.000000, 0.003154
262.000000, 0.001128
263.000000, 0.000338
264.000000, 0.001919
265.000000, 0.000452
266.000000, 0.003056
267.000000, 0.004532
268.000000, 0.007014
269.000000, 0.000227
270.000000, 0.001704
271.000000, 0.002500
272.000000, 0.005802
273.000000, 0.006489
274.000000, 0.001594
275.000000, 0.001822
276.000000, 0.001367
277.000000, 0.000684
278.000000, 0.002622
279.000000, 0.004560
280.000000, 0.000342
281.000000, 0.001596
282.000000, 0.002166
283.000000, 0.001596
284.000000, 0.000456
285.000000, 0.000798
286.000000, 0.001596
287.000000, 0.000114
288.000000, 0.001254
289.000000, 0.001026
290.000000, 0.002051
291.000000, 0.001140
292.000000, 0.000570
293.000000, 0.001595
294.000000, 0.005012
295.000000, 0.003988
296.000000, 0.001709
297.000000, 0.001140
298.000000, 0.002278
299.000000, 0.000797
300.000000, 0.000342
301.000000, 0.000228
302.000000, 0.002846
303.000000, 0.003530
304.000000, 0.000341
305.000000, 0.000683
306.000000, 0.002958
307.000000, 0.009235
308.000000, 0.001251
309.000000, 0.002274
310.000000, 0.001137
311.000000, 0.004431
312.000000, 0.008975
313.000000, 0.016692
314.000000, 0.011922
315.000000, 0.018169
316.000000, 0.036096
317.000000, 0.033015
318.000000, 0.016775
319.000000, 0.015872
320.000000, 0.029935
321.000000, 0.028363
322.000000, 0.012715
323.000000, 0.011358
324.000000, 0.011354
325.000000, 0.011577
326.000000, 0.005506
327.000000, 0.009888
328.000000, 0.005392
329.000000, 0.004378
330.000000, 0.016610
331.000000, 0.111305
332.000000, 0.299103
333.000000, 0.381220
334.000000, 0.225049
335.000000, 0.059946
336.000000, 0.024094
337.000000, 0.031588
338.000000, 0.024192
339.000000, 0.020492
340.000000, 0.014998
341.000000, 0.012865
342.000000, 0.014874
343.000000, 0.024261
344.000000, 0.076667
345.000000, 0.246868
346.000000, 0.444142
347.000000, 0.424563
348.000000, 0.261293
349.000000, 0.344481
350.000000, 0.967884
351.000000, 2.241484
352.000000, 3.670559
353.000000, 4.176390
354.000000, 3.283846
355.000000, 1.771044
356.000000, 0.719847
357.000000, 0.271389
358.000000, 0.101033
359.000000, 0.085196
360.000000, 0.038137
361.000000, 0.004001
362.000000, 0.002222
363.000000, 0.009002
364.000000, 0.005553
365.000000, 0.002887
366.000000, 0.000777
367.000000, 0.000998
368.000000, 0.002661
369.000000, 0.003991
370.000000, 0.002438
371.000000, 0.002104
372.000000, 0.001992
373.000000, 0.002766
374.000000, 0.002875
375.000000, 0.005195
376.000000, 0.006957
377.000000, 0.010267
378.000000, 0.014367
379.000000, 0.011691
380.000000, 0.011136
381.000000, 0.012342
382.000000, 0.004738
383.000000, 0.002864
384.000000, 0.005615
385.000000, 0.015303
386.000000, 0.026405
387.000000, 0.083593
388.000000, 0.763946
389.000000, 6.709722
390.000000, 28.718126
391.000000, 63.802094
392.000000, 88.702423
393.000000, 96.367819
394.000000, 97.517237
395.000000, 98.025962
396.000000, 98.284079
397.000000, 98.450386
398.000000, 98.478449
399.000000, 98.502386
400.000000, 98.528768
401.000000, 98.551571
402.000000, 98.597082
403.000000, 98.559331
404.000000, 98.302283
405.000000, 98.197021
406.000000, 98.216031
407.000000, 98.258803
408.000000, 98.339698
409.000000, 98.406284
410.000000, 98.353216
411.000000, 98.343062
412.000000, 98.294642
413.000000, 98.191872
414.000000, 98.177736
415.000000, 98.178879
416.000000, 98.075688
417.000000, 98.045335
418.000000, 98.065846
419.000000, 98.034951
420.000000, 98.084440
421.000000, 98.150768
422.000000, 98.094363
423.000000, 98.047128
424.000000, 98.037534
425.000000, 98.006990
426.000000, 98.026346
427.000000, 97.977532
428.000000, 97.871258
429.000000, 97.895335
430.000000, 97.926061
431.000000, 97.847470
432.000000, 97.867960
433.000000, 97.983062
434.000000, 97.948416
435.000000, 97.898021
436.000000, 97.871464
437.000000, 97.757409
438.000000, 97.747924
439.000000, 97.808934
440.000000, 97.754775
441.000000, 97.724058
442.000000, 97.731203
443.000000, 97.651780
444.000000, 97.543640
445.000000, 97.411518
446.000000, 97.149520
447.000000, 96.740578
448.000000, 93.559811
449.000000, 78.908580
450.000000, 48.118609
451.000000, 16.722943
452.000000, 2.331458
453.000000, 0.000669
454.000000, 0.000510
455.000000, 0.000933
456.000000, 0.000359
457.000000, 0.000410
458.000000, 0.000338
459.000000, 0.000389
460.000000, 0.000440
461.000000, 0.000307
462.000000, 0.000389
463.000000, 0.000501
464.000000, 0.000307
465.000000, 0.000368
466.000000, 0.000450
467.000000, 0.000246
468.000000, 0.000450
469.000000, 0.000725
470.000000, 0.000470
471.000000, 0.000327
472.000000, 0.000286
473.000000, 0.000266
474.000000, 0.000439
475.000000, 0.000449
476.000000, 0.000307
477.000000, 0.000418
478.000000, 0.000469
479.000000, 0.000317
480.000000, 0.000449
481.000000, 0.000510
482.000000, 0.000347
483.000000, 0.000438
484.000000, 0.000398
485.000000, 0.000123
486.000000, 0.000398
487.000000, 0.000611
488.000000, 0.000519
489.000000, 0.000590
490.000000, 0.000398
491.000000, 0.000144
492.000000, 0.000205
493.000000, 0.000215
494.000000, 0.000195
495.000000, 0.000387
496.000000, 0.000377
497.000000, 0.000195
498.000000, 0.000245
499.000000, 0.000266
500.000000, 0.000205
501.000000, 0.000408
502.000000, 0.000387
503.000000, 0.000245
504.000000, 0.000306
505.000000, 0.000296
506.000000, 0.000245
507.000000, 0.000489
508.000000, 0.000357
509.000000, 0.000123
510.000000, 0.000245
511.000000, 0.000327
512.000000, 0.000347
513.000000, 0.000529
514.000000, 0.000407
515.000000, 0.000255
516.000000, 0.000286
517.000000, 0.000296
518.000000, 0.000265
519.000000, 0.000508
520.000000, 0.000316
521.000000, 0.000083
522.000000, 0.000225
523.000000, 0.000174
524.000000, 0.000134
525.000000, 0.000387
526.000000, 0.000275
527.000000, 0.000073
528.000000, 0.000326
529.000000, 0.000407
530.000000, 0.000326
531.000000, 0.000417
532.000000, 0.000305
533.000000, 0.000224
534.000000, 0.000346
535.000000, 0.000386
536.000000, 0.000255
537.000000, 0.000285
538.000000, 0.000265
539.000000, 0.000184
540.000000, 0.000255
541.000000, 0.000346
542.000000, 0.000346
543.000000, 0.000356
544.000000, 0.000204
545.000000, 0.000144
546.000000, 0.000396
547.000000, 0.000456
548.000000, 0.000315
549.000000, 0.000295
550.000000, 0.000234
551.000000, 0.000255
552.000000, 0.000456
553.000000, 0.000305
554.000000, 0.000224
555.000000, 0.000456
556.000000, 0.000204
557.000000, 0.000144
558.000000, 0.000365
559.000000, 0.000265
560.000000, 0.000123
561.000000, 0.000345
562.000000, 0.000295
563.000000, 0.000386
564.000000, 0.000376
565.000000, 0.000376
566.000000, 0.000386
567.000000, 0.000204
568.000000, 0.000214
569.000000, 0.000356
570.000000, 0.000416
571.000000, 0.000426
572.000000, 0.000557
573.000000, 0.000406
574.000000, 0.000315
575.000000, 0.000366
576.000000, 0.000255
577.000000, 0.000325
578.000000, 0.000416
579.000000, 0.000386
580.000000, 0.000335
581.000000, 0.000396
582.000000, 0.000396
583.000000, 0.000295
584.000000, 0.000376
585.000000, 0.000315
586.000000, 0.000154
587.000000, 0.000365
588.000000, 0.000305
589.000000, 0.000275
590.000000, 0.000204
591.000000, 0.000325
592.000000, 0.000275
593.000000, 0.000466
594.000000, 0.000264
595.000000, 0.000275
596.000000, 0.000446
597.000000, 0.000426
598.000000, 0.000264
599.000000, 0.000657
600.000000, 0.000315
601.000000, 0.000325
602.000000, 0.000416
603.000000, 0.000405
604.000000, 0.000395
605.000000, 0.000627
606.000000, 0.000224
607.000000, 0.000375
608.000000, 0.000385
609.000000, 0.000425
610.000000, 0.000234
611.000000, 0.000466
612.000000, 0.000134
613.000000, 0.000435
614.000000, 0.000325
615.000000, 0.000415
616.000000, 0.000375
617.000000, 0.000616
618.000000, 0.000164
619.000000, 0.000113
620.000000, 0.000576
621.000000, 0.000506
622.000000, 0.000335
623.000000, 0.000747
624.000000, 0.000274
625.000000, 0.000294
626.000000, 0.000365
627.000000, 0.000284
628.000000, 0.000184
629.000000, 0.000555
630.000000, 0.000244
631.000000, 0.000284
632.000000, 0.000495
633.000000, 0.000284
634.000000, 0.000134
635.000000, 0.000535
636.000000, 0.000264
637.000000, 0.000324
638.000000, 0.000415
639.000000, 0.000184
640.000000, 0.000435
641.000000, 0.000635
642.000000, 0.000374
643.000000, 0.000394
644.000000, 0.000435
645.000000, 0.000154
646.000000, 0.000374
647.000000, 0.000605
648.000000, 0.000043
649.000000, 0.000013
650.000000, 0.000284
651.000000, 0.000274
652.000000, 0.000594
653.000000, 0.000404
654.000000, 0.000103
655.000000, 0.000133
656.000000, 0.000394
657.000000, 0.000144
658.000000, 0.000344
659.000000, 0.000574
660.000000, 0.000404
661.000000, 0.000394
662.000000, 0.000514
663.000000, 0.000314
664.000000, 0.000283
665.000000, 0.000154
666.000000, 0.000483
667.000000, 0.000243
668.000000, 0.000453
669.000000, 0.000323
670.000000, 0.000353
671.000000, 0.000403
672.000000, 0.000653
673.000000, 0.000253
674.000000, 0.000653
675.000000, 0.000333
676.000000, 0.000303
677.000000, 0.000433
678.000000, 0.000163
679.000000, 0.000562
680.000000, 0.000273
681.000000, 0.000532
682.000000, 0.000383
683.000000, 0.000393
684.000000, 0.000383
685.000000, 0.000801
686.000000, 0.000393
687.000000, 0.000363
688.000000, 0.000203
689.000000, 0.000562
690.000000, 0.000552
691.000000, 0.000324
692.000000, 0.000472
693.000000, 0.000253
694.000000, 0.000392
695.000000, 0.000432
696.000000, 0.000422
697.000000, 0.000332
698.000000, 0.000521
699.000000, 0.000004
700.000000, 0.000342
701.000000, 0.000372
702.000000, 0.000402
703.000000, 0.000431
704.000000, 0.000392
705.000000, 0.000471
706.000000, 0.000253
707.000000, 0.000520
708.000000, 0.000252
709.000000, 0.000609
710.000000, 0.000431
711.000000, 0.000342
712.000000, 0.000074
713.000000, 0.000579
714.000000, 0.000391
715.000000, 0.000530
716.000000, 0.000242
717.000000, 0.000341
718.000000, 0.000163
719.000000, 0.000628
720.000000, 0.000213
721.000000, 0.000608
722.000000, 0.000252
723.000000, 0.000242
724.000000, 0.000173
725.000000, 0.000588
726.000000, 0.000370
727.000000, 0.000390
728.000000, 0.000173
729.000000, 0.000479
730.000000, 0.000252
731.000000, 0.000656
732.000000, 0.000242
733.000000, 0.000439
734.000000, 0.000212
735.000000, 0.000291
736.000000, 0.000478
737.000000, 0.000547
738.000000, 0.000458
739.000000, 0.000576
740.000000, 0.000370
741.000000, 0.000301
742.000000, 0.000251
743.000000, 0.000576
744.000000, 0.000251
745.000000, 0.000448
746.000000, 0.000379
747.000000, 0.000369
748.000000, 0.000428
749.000000, 0.000398
750.000000, 0.000379
751.000000, 0.000418
752.000000, 0.000349
753.000000, 0.000251
754.000000, 0.000457
755.000000, 0.000388
756.000000, 0.000457
757.000000, 0.000408
758.000000, 0.000241
759.000000, 0.000349
760.000000, 0.000534
761.000000, 0.000652
762.000000, 0.000642
763.000000, 0.000280
764.000000, 0.000759
765.000000, 0.000465
766.000000, 0.000397
767.000000, 0.000661
768.000000, 0.000621
769.000000, 0.000202
770.000000, 0.000533
771.000000, 0.000260
772.000000, 0.000484
773.000000, 0.000786
774.000000, 0.000591
775.000000, 0.000046
776.000000, 0.000523
777.000000, 0.000425
778.000000, 0.000484
779.000000, 0.000659
780.000000, 0.000600
781.000000, 0.000260
782.000000, 0.000688
783.000000, 0.000473
784.000000, 0.000473
785.000000, 0.000784
786.000000, 0.000522
787.000000, 0.000230
788.000000, 0.000619
789.000000, 0.000512
790.000000, 0.000424
791.000000, 0.000686
792.000000, 0.000414
793.000000, 0.000172
794.000000, 0.000288
795.000000, 0.000395
796.000000, 0.000453
797.000000, 0.000540
798.000000, 0.000385
799.000000, 0.000298
800.000000, 0.000307
801.000000, 0.000433
802.000000, 0.000675
803.000000, 0.000762
804.000000, 0.000365
805.000000, 0.000297
806.000000, 0.000327
807.000000, 0.000404
808.000000, 0.000442
809.000000, 0.000578
810.000000, 0.000374
811.000000, 0.000577
812.000000, 0.000548
813.000000, 0.000374
814.000000, 0.000249
815.000000, 0.000230
816.000000, 0.000268
817.000000, 0.000567
818.000000, 0.000770
819.000000, 0.000557
820.000000, 0.000259
821.000000, 0.000374
822.000000, 0.000423
823.000000, 0.000654
824.000000, 0.000693
825.000000, 0.000712
826.000000, 0.000384
827.000000, 0.000365
828.000000, 0.000462
829.000000, 0.000635
830.000000, 0.000510
831.000000, 0.000510
832.000000, 0.000365
833.000000, 0.000259
834.000000, 0.000346
835.000000, 0.000676
836.000000, 0.000782
837.000000, 0.000695
838.000000, 0.000444
839.000000, 0.000522
840.000000, 0.000483
841.000000, 0.000609
842.000000, 0.000629
843.000000, 0.000454
844.000000, 0.000347
845.000000, 0.000601
846.000000, 0.000435
847.000000, 0.000689
848.000000, 0.000904
849.000000, 0.000621
850.000000, 0.000397
851.000000, 0.000505
852.000000, 0.000466
853.000000, 0.000652
854.000000, 0.000857
855.000000, 0.000711
856.000000, 0.000466
857.000000, 0.000623
858.000000, 0.000466
859.000000, 0.000388
860.000000, 0.000425
861.000000, 0.000326
862.000000, 0.000407
863.000000, 0.000427
864.000000, 0.000424
865.000000, 0.000523
866.000000, 0.000644
867.000000, 0.000553
868.000000, 0.000364
869.000000, 0.000328
870.000000, 0.000406
871.000000, 0.000473
872.000000, 0.000512
873.000000, 0.000469
874.000000, 0.000415
875.000000, 0.000542
876.000000, 0.000675
877.000000, 0.000484
878.000000, 0.000229
879.000000, 0.000337
880.000000, 0.000423
881.000000, 0.000389
882.000000, 0.000471
883.000000, 0.000541
884.000000, 0.000579
885.000000, 0.000643
886.000000, 0.000646
887.000000, 0.000380
888.000000, 0.000241
889.000000, 0.000449
890.000000, 0.000615
891.000000, 0.000694
892.000000, 0.000638
893.000000, 0.000388
894.000000, 0.000316
895.000000, 0.000520
896.000000, 0.000657
897.000000, 0.000614
898.000000, 0.000360
899.000000, 0.000154
900.000000, 0.000293
901.000000, 0.000541
902.000000, 0.000672
903.000000, 0.000619
904.000000, 0.000280
905.000000, 0.000192
906.000000, 0.000458
907.000000, 0.000649
908.000000, 0.000654
909.000000, 0.000673
910.000000, 0.000665
911.000000, 0.000304
912.000000, 0.000253
913.000000, 0.000764
914.000000, 0.000992
915.000000, 0.000565
916.000000, 0.000105
917.000000, 0.000035
918.000000, 0.000381
919.000000, 0.000790
920.000000, 0.000958
921.000000, 0.000645
922.000000, 0.000200
923.000000, 0.000372
924.000000, 0.000715
925.000000, 0.000614
926.000000, 0.000424
927.000000, 0.000475
928.000000, 0.000616
929.000000, 0.000507
930.000000, 0.000462
931.000000, 0.000487
932.000000, 0.000462
933.000000, 0.000414
934.000000, 0.000400
935.000000, 0.000482
936.000000, 0.000424
937.000000, 0.000459
938.000000, 0.000478
939.000000, 0.000578
940.000000, 0.000823
941.000000, 0.000684
942.000000, 0.000562
943.000000, 0.000453
944.000000, 0.000483
945.000000, 0.000447
946.000000, 0.000414
947.000000, 0.000429
948.000000, 0.000564
949.000000, 0.000871
950.000000, 0.000494
951.000000, 0.000386
952.000000, 0.000404
953.000000, 0.000415
954.000000, 0.000363
955.000000, 0.000366
956.000000, 0.000484
957.000000, 0.000583
958.000000, 0.000898
959.000000, 0.000866
960.000000, 0.000454
961.000000, 0.000107
962.000000, 0.000420
963.000000, 0.000782
964.000000, 0.000573
965.000000, 0.000473
966.000000, 0.000442
967.000000, 0.000374
968.000000, 0.000403
969.000000, 0.000409
970.000000, 0.000487
971.000000, 0.000413
972.000000, 0.000491
973.000000, 0.000613
974.000000, 0.000365
975.000000, 0.000347
976.000000, 0.000726
977.000000, 0.000792
978.000000, 0.000451
979.000000, 0.000653
980.000000, 0.000700
981.000000, 0.000622
982.000000, 0.000494
983.000000, 0.000690
984.000000, 0.000463
985.000000, 0.000322
986.000000, 0.000439
987.000000, 0.000655
988.000000, 0.000403
989.000000, 0.000306
990.000000, 0.000418
991.000000, 0.000696
992.000000, 0.000561
993.000000, 0.000396
994.000000, 0.000264
995.000000, 0.000423
996.000000, 0.000761
997.000000, 0.000427
998.000000, 0.000343
999.000000, 0.000381
1000.000000, 0.000611
1001.000000, 0.000831
1002.000000, 0.000520
1003.000000, 0.000366
1004.000000, 0.000299
1005.000000, 0.000405
1006.000000, 0.000797
1007.000000, 0.000506
1008.000000, 0.000331
1009.000000, 0.000339
1010.000000, 0.000276
1011.000000, 0.000427
1012.000000, 0.000824
1013.000000, 0.000881
1014.000000, 0.000511
1015.000000, 0.000373
1016.000000, 0.000409
1017.000000, 0.000789
1018.000000, 0.000684
1019.000000, 0.000413
1020.000000, 0.000313
1021.000000, 0.000317
1022.000000, 0.000382
1023.000000, 0.000766
1024.000000, 0.000885
1025.000000, 0.000823
1026.000000, 0.000369
1027.000000, 0.000289
1028.000000, 0.000443
1029.000000, 0.000475
1030.000000, 0.000889
1031.000000, 0.000749
1032.000000, 0.000389
1033.000000, 0.000331
1034.000000, 0.000299
1035.000000, 0.000377
1036.000000, 0.000504
1037.000000, 0.000916
1038.000000, 0.000806
1039.000000, 0.000420
1040.000000, 0.000357
1041.000000, 0.000275
1042.000000, 0.000429
1043.000000, 0.000376
1044.000000, 0.000814
1045.000000, 0.000766
1046.000000, 0.000736
1047.000000, 0.000291
1048.000000, 0.000257
1049.000000, 0.000391
1050.000000, 0.000420
1051.000000, 0.000903
1052.000000, 0.000904
1053.000000, 0.000814
1054.000000, 0.000386
1055.000000, 0.000252
1056.000000, 0.000295
1057.000000, 0.000432
1058.000000, 0.000149
1059.000000, 0.000396
1060.000000, 0.000874
1061.000000, 0.000900
1062.000000, 0.000837
1063.000000, 0.000420
1064.000000, 0.000484
1065.000000, 0.000305
1066.000000, 0.000301
1067.000000, 0.000221
1068.000000, 0.000161
1069.000000, 0.000317
1070.000000, 0.000718
1071.000000, 0.000912
1072.000000, 0.000972
1073.000000, 0.000761
1074.000000, 0.000396
1075.000000, 0.000232
1076.000000, 0.000223
1077.000000, 0.000157
1078.000000, 0.000384
1079.000000, 0.000835
1080.000000, 0.000946
1081.000000, 0.000653
1082.000000, 0.000268
1083.000000, 0.000159
1084.000000, 0.000134
1085.000000, 0.000255
1086.000000, 0.000682
1087.000000, 0.000847
1088.000000, 0.000683
1089.000000, 0.000695
1090.000000, 0.000599
1091.000000, 0.000086
1092.000000, 0.000259
1093.000000, 0.000786
1094.000000, 0.000886
1095.000000, 0.000746
1096.000000, 0.000774
1097.000000, 0.000600
1098.000000, 0.000257
1099.000000, 0.000244
