# Wavelength  (nm), Transmission (%)
200.000000, 0.002977
201.000000, 0.002888
202.000000, 0.002828
203.000000, 0.002738
204.000000, 0.002669
205.000000, 0.002623
206.000000, 0.002531
207.000000, 0.002475
208.000000, 0.002421
209.000000, 0.002347
210.000000, 0.002344
211.000000, 0.002227
212.000000, 0.002215
213.000000, 0.002161
214.000000, 0.002104
215.000000, 0.002085
216.000000, 0.002036
217.000000, 0.002020
218.000000, 0.002007
219.000000, 0.001976
220.000000, 0.001962
221.000000, 0.001933
222.000000, 0.001902
223.000000, 0.001936
224.000000, 0.001886
225.000000, 0.001872
226.000000, 0.001876
227.000000, 0.001874
228.000000, 0.001828
229.000000, 0.001818
230.000000, 0.001813
231.000000, 0.001818
232.000000, 0.001793
233.000000, 0.001786
234.000000, 0.001763
235.000000, 0.001748
236.000000, 0.001717
237.000000, 0.001713
238.000000, 0.001674
239.000000, 0.001667
240.000000, 0.001651
241.000000, 0.001621
242.000000, 0.001623
243.000000, 0.001630
244.000000, 0.001611
245.000000, 0.001593
246.000000, 0.001590
247.000000, 0.001597
248.000000, 0.001592
249.000000, 0.001567
250.000000, 0.001568
251.000000, 0.001568
252.000000, 0.001562
253.000000, 0.001568
254.000000, 0.001565
255.000000, 0.001571
256.000000, 0.001574
257.000000, 0.001531
258.000000, 0.001561
259.000000, 0.001550
260.000000, 0.001532
261.000000, 0.001519
262.000000, 0.001496
263.000000, 0.001548
264.000000, 0.001503
265.000000, 0.001500
266.000000, 0.001491
267.000000, 0.001472
268.000000, 0.001444
269.000000, 0.001472
270.000000, 0.001460
271.000000, 0.001435
272.000000, 0.001418
273.000000, 0.001410
274.000000, 0.001408
275.000000, 0.001366
276.000000, 0.001377
277.000000, 0.001347
278.000000, 0.001329
279.000000, 0.001345
280.000000, 0.001306
281.000000, 0.001325
282.000000, 0.001249
283.000000, 0.001279
284.000000, 0.001208
285.000000, 0.001200
286.000000, 0.001161
287.000000, 0.001158
288.000000, 0.001111
289.000000, 0.001119
290.000000, 0.001061
291.000000, 0.001031
292.000000, 0.001003
293.000000, 0.000930
294.000000, 0.000933
295.000000, 0.000856
296.000000, 0.000842
297.000000, 0.000783
298.000000, 0.000729
299.000000, 0.000709
300.000000, 0.000663
301.000000, 0.000621
302.000000, 0.000585
303.000000, 0.000533
304.000000, 0.000510
305.000000, 0.000465
306.000000, 0.000410
307.000000, 0.000393
308.000000, 0.000368
309.000000, 0.000355
310.000000, 0.000312
311.000000, 0.000282
312.000000, 0.000261
313.000000, 0.000230
314.000000, 0.000244
315.000000, 0.000181
316.000000, 0.000174
317.000000, 0.000168
318.000000, 0.000150
319.000000, 0.000141
320.000000, 0.000148
321.000000, 0.000114
322.000000, 0.000113
323.000000, 0.000090
324.000000, 0.000105
325.000000, 0.000070
326.000000, 0.000078
327.000000, 0.000062
328.000000, 0.000082
329.000000, 0.000044
330.000000, 0.000072
331.000000, 0.000048
332.000000, 0.000045
333.000000, 0.000037
334.000000, 0.000034
335.000000, 0.000037
336.000000, 0.000036
337.000000, 0.000031
338.000000, 0.000032
339.000000, 0.000034
340.000000, 0.000037
341.000000, 0.000026
342.000000, 0.000038
343.000000, 0.000030
344.000000, 0.000020
345.000000, 0.000017
346.000000, 0.000028
347.000000, 0.000037
348.000000, 0.000011
349.000000, -0.000102
350.000000, 0.000050
351.000000, 0.000043
352.000000, 0.000045
353.000000, 0.000042
354.000000, 0.000052
355.000000, 0.000035
356.000000, 0.000051
357.000000, 0.000054
358.000000, 0.000046
359.000000, 0.000069
360.000000, 0.000051
361.000000, 0.000065
362.000000, 0.000084
363.000000, 0.000081
364.000000, 0.000088
365.000000, 0.000097
366.000000, 0.000095
367.000000, 0.000101
368.000000, 0.000121
369.000000, 0.000136
370.000000, 0.000147
371.000000, 0.000154
372.000000, 0.000144
373.000000, 0.000131
374.000000, 0.000144
375.000000, 0.000168
376.000000, 0.000182
377.000000, 0.000188
378.000000, 0.000161
379.000000, 0.000127
380.000000, 0.000139
381.000000, 0.000129
382.000000, 0.000164
383.000000, 0.000160
384.000000, 0.000121
385.000000, 0.000101
386.000000, 0.000094
387.000000, 0.000105
388.000000, 0.000100
389.000000, 0.000074
390.000000, 0.000055
391.000000, 0.000057
392.000000, 0.000039
393.000000, 0.000042
394.000000, 0.000033
395.000000, 0.000039
396.000000, 0.000042
397.000000, 0.000035
398.000000, 0.000036
399.000000, 0.000041
400.000000, 0.000030
401.000000, 0.000039
402.000000, 0.000033
403.000000, 0.000038
404.000000, 0.000044
405.000000, 0.000020
406.000000, 0.000032
407.000000, 0.000039
408.000000, 0.000033
409.000000, 0.000027
410.000000, 0.000034
411.000000, 0.000035
412.000000, 0.000034
413.000000, 0.000026
414.000000, 0.000039
415.000000, 0.000032
416.000000, 0.000032
417.000000, 0.000028
418.000000, 0.000029
419.000000, 0.000028
420.000000, 0.000026
421.000000, 0.000034
422.000000, 0.000037
423.000000, 0.000024
424.000000, 0.000018
425.000000, 0.000031
426.000000, 0.000028
427.000000, 0.000027
428.000000, 0.000026
429.000000, 0.000030
430.000000, 0.000029
431.000000, 0.000021
432.000000, 0.000033
433.000000, 0.000035
434.000000, 0.000035
435.000000, 0.000031
436.000000, 0.000021
437.000000, 0.000033
438.000000, 0.000029
439.000000, 0.000031
440.000000, 0.000025
441.000000, 0.000024
442.000000, 0.000012
443.000000, 0.000030
444.000000, 0.000032
445.000000, 0.000027
446.000000, 0.000039
447.000000, 0.000031
448.000000, 0.000026
449.000000, 0.000025
450.000000, 0.000032
451.000000, 0.000024
452.000000, 0.000027
453.000000, 0.000027
454.000000, 0.000027
455.000000, 0.000024
456.000000, 0.000033
457.000000, 0.000025
458.000000, 0.000022
459.000000, 0.000031
460.000000, 0.000026
461.000000, 0.000027
462.000000, 0.000027
463.000000, 0.000020
464.000000, 0.000034
465.000000, 0.000026
466.000000, 0.000024
467.000000, 0.000030
468.000000, 0.000022
469.000000, 0.000027
470.000000, 0.000029
471.000000, 0.000025
472.000000, 0.000029
473.000000, 0.000021
474.000000, 0.000021
475.000000, 0.000032
476.000000, 0.000031
477.000000, 0.000028
478.000000, 0.000023
479.000000, 0.000025
480.000000, 0.000024
481.000000, 0.000024
482.000000, 0.000020
483.000000, 0.000021
484.000000, 0.000028
485.000000, 0.000024
486.000000, 0.000019
487.000000, 0.000020
488.000000, 0.000023
489.000000, 0.000022
490.000000, 0.000026
491.000000, 0.000023
492.000000, 0.000022
493.000000, 0.000025
494.000000, 0.000027
495.000000, 0.000016
496.000000, 0.000025
497.000000, 0.000016
498.000000, 0.000027
499.000000, 0.000025
500.000000, 0.000016
501.000000, 0.000024
502.000000, 0.000021
503.000000, 0.000026
504.000000, 0.000032
505.000000, 0.000017
506.000000, 0.000029
507.000000, 0.000024
508.000000, 0.000026
509.000000, 0.000033
510.000000, 0.000028
511.000000, 0.000030
512.000000, 0.000030
513.000000, 0.000036
514.000000, 0.000033
515.000000, 0.000029
516.000000, 0.000038
517.000000, 0.000037
518.000000, 0.000039
519.000000, 0.000042
520.000000, 0.000040
521.000000, 0.000038
522.000000, 0.000048
523.000000, 0.000041
524.000000, 0.000046
525.000000, 0.000049
526.000000, 0.000059
527.000000, 0.000059
528.000000, 0.000067
529.000000, 0.000072
530.000000, 0.000089
531.000000, 0.000101
532.000000, 0.000136
533.000000, 0.000174
534.000000, 0.000253
535.000000, 0.000383
536.000000, 0.000598
537.000000, 0.000944
538.000000, 0.001551
539.000000, 0.002659
540.000000, 0.004655
541.000000, 0.008347
542.000000, 0.015430
543.000000, 0.029448
544.000000, 0.058652
545.000000, 0.122715
546.000000, 0.269555
547.000000, 0.631937
548.000000, 1.598103
549.000000, 4.351990
550.000000, 11.997194
551.000000, 29.198322
552.000000, 55.131577
553.000000, 76.677040
554.000000, 85.186630
555.000000, 85.382347
556.000000, 84.626968
557.000000, 85.069649
558.000000, 85.897621
559.000000, 86.404106
560.000000, 86.591927
561.000000, 86.683876
562.000000, 86.803085
563.000000, 87.141327
564.000000, 87.594521
565.000000, 88.156357
566.000000, 88.672668
567.000000, 89.052643
568.000000, 89.298607
569.000000, 89.347832
570.000000, 89.282692
571.000000, 89.227737
572.000000, 89.083755
573.000000, 88.976120
574.000000, 88.870308
575.000000, 88.720718
576.000000, 88.583397
577.000000, 88.412384
578.000000, 88.204521
579.000000, 88.047234
580.000000, 87.892464
581.000000, 87.773262
582.000000, 87.713448
583.000000, 87.752396
584.000000, 87.899818
585.000000, 88.098038
586.000000, 88.435554
587.000000, 88.758759
588.000000, 89.090607
589.000000, 89.386299
590.000000, 89.577965
591.000000, 89.683487
592.000000, 89.643875
593.000000, 89.513031
594.000000, 89.268929
595.000000, 88.936653
596.000000, 88.503708
597.000000, 88.116615
598.000000, 87.758675
599.000000, 87.440620
600.000000, 87.208099
601.000000, 87.072464
602.000000, 87.062500
603.000000, 87.208931
604.000000, 87.434555
605.000000, 87.767998
606.000000, 88.162582
607.000000, 88.588730
608.000000, 88.999092
609.000000, 89.422043
610.000000, 89.756432
611.000000, 90.074554
612.000000, 90.258430
613.000000, 90.335617
614.000000, 90.318909
615.000000, 90.223381
616.000000, 90.037254
617.000000, 89.816620
618.000000, 89.580826
619.000000, 89.330826
620.000000, 89.132050
621.000000, 88.943687
622.000000, 88.817612
623.000000, 88.763435
624.000000, 88.805702
625.000000, 88.889542
626.000000, 89.045921
627.000000, 89.231865
628.000000, 89.486855
629.000000, 89.700020
630.000000, 89.966881
631.000000, 90.158981
632.000000, 90.284607
633.000000, 90.370941
634.000000, 90.378143
635.000000, 90.288773
636.000000, 90.094955
637.000000, 89.874222
638.000000, 89.557190
639.000000, 89.162224
640.000000, 88.755455
641.000000, 88.269394
642.000000, 87.793877
643.000000, 87.372330
644.000000, 87.002266
645.000000, 86.647499
646.000000, 86.376762
647.000000, 86.157089
648.000000, 86.029877
649.000000, 86.029121
650.000000, 86.052635
651.000000, 86.249199
652.000000, 86.429749
653.000000, 86.724678
654.000000, 87.093178
655.000000, 87.493889
656.000000, 87.888611
657.000000, 88.327614
658.000000, 88.760170
659.000000, 89.160271
660.000000, 89.515984
661.000000, 89.828697
662.000000, 90.065277
663.000000, 90.183090
664.000000, 90.295448
665.000000, 90.267105
666.000000, 90.206512
667.000000, 90.045021
668.000000, 89.848930
669.000000, 89.548790
670.000000, 89.232849
671.000000, 88.938110
672.000000, 88.548859
673.000000, 88.203308
674.000000, 87.878204
675.000000, 87.590103
676.000000, 87.308456
677.000000, 87.091690
678.000000, 86.911812
679.000000, 86.763626
680.000000, 86.680313
681.000000, 86.707779
682.000000, 86.739586
683.000000, 86.854691
684.000000, 86.990562
685.000000, 87.143501
686.000000, 87.368668
687.000000, 87.654449
688.000000, 87.876167
689.000000, 88.171585
690.000000, 88.420792
691.000000, 88.731140
692.000000, 89.006088
693.000000, 89.216354
694.000000, 89.447708
695.000000, 89.595909
696.000000, 89.747627
697.000000, 89.857941
698.000000, 89.957901
699.000000, 89.964500
700.000000, 89.980820
701.000000, 89.971298
702.000000, 89.894814
703.000000, 89.823547
704.000000, 89.693901
705.000000, 89.658150
706.000000, 89.529861
707.000000, 89.404976
708.000000, 89.270653
709.000000, 89.228615
710.000000, 89.129135
711.000000, 89.052925
712.000000, 88.981186
713.000000, 88.926399
714.000000, 88.896774
715.000000, 88.908234
716.000000, 88.932541
717.000000, 88.933868
718.000000, 89.069458
719.000000, 89.084663
720.000000, 89.124008
721.000000, 89.263496
722.000000, 89.287796
723.000000, 89.372154
724.000000, 89.466385
725.000000, 89.449654
726.000000, 89.553383
727.000000, 89.545937
728.000000, 89.597389
729.000000, 89.593056
730.000000, 89.540192
731.000000, 89.566078
732.000000, 89.452538
733.000000, 89.346245
734.000000, 89.232712
735.000000, 89.139000
736.000000, 88.996796
737.000000, 88.898537
738.000000, 88.739685
739.000000, 88.562973
740.000000, 88.415924
741.000000, 88.259850
742.000000, 88.104134
743.000000, 88.013611
744.000000, 87.881569
745.000000, 87.756790
746.000000, 87.700226
747.000000, 87.666145
748.000000, 87.609116
749.000000, 87.611244
750.000000, 87.542877
751.000000, 87.640221
752.000000, 87.701797
753.000000, 87.807373
754.000000, 87.779304
755.000000, 87.922134
756.000000, 88.148079
757.000000, 88.234322
758.000000, 88.412697
759.000000, 88.532822
760.000000, 88.685509
761.000000, 88.864059
762.000000, 88.975189
763.000000, 89.156792
764.000000, 89.268120
765.000000, 89.409111
766.000000, 89.576027
767.000000, 89.640266
768.000000, 89.703934
769.000000, 89.730591
770.000000, 89.829155
771.000000, 89.812019
772.000000, 89.748833
773.000000, 89.680984
774.000000, 89.643723
775.000000, 89.676109
776.000000, 89.515991
777.000000, 89.394249
778.000000, 89.203743
779.000000, 89.149635
780.000000, 89.031639
781.000000, 88.837456
782.000000, 88.668350
783.000000, 88.492599
784.000000, 88.357841
785.000000, 88.210167
786.000000, 88.055733
787.000000, 87.867622
788.000000, 87.821922
789.000000, 87.714943
790.000000, 87.581947
791.000000, 87.536102
792.000000, 87.411041
793.000000, 87.485985
794.000000, 87.455139
795.000000, 87.358162
796.000000, 87.410110
797.000000, 87.479179
798.000000, 87.478363
799.000000, 87.482605
800.000000, 87.306770
801.000000, 87.366394
802.000000, 87.488243
803.000000, 87.546661
804.000000, 87.690140
805.000000, 87.862480
806.000000, 87.998062
807.000000, 88.142136
808.000000, 88.196785
809.000000, 88.426460
810.000000, 88.475311
811.000000, 88.540062
812.000000, 88.652573
813.000000, 88.716507
814.000000, 88.764175
815.000000, 88.743744
816.000000, 88.868202
817.000000, 88.913086
818.000000, 88.932014
819.000000, 88.905167
820.000000, 88.909988
821.000000, 88.907341
822.000000, 88.767670
823.000000, 88.675278
824.000000, 88.604042
825.000000, 88.454201
826.000000, 88.381126
827.000000, 88.284607
828.000000, 88.035416
829.000000, 87.920670
830.000000, 87.850937
831.000000, 87.707207
832.000000, 87.417343
833.000000, 87.294960
834.000000, 87.169624
835.000000, 86.916466
836.000000, 86.787277
837.000000, 86.700180
838.000000, 86.513565
839.000000, 86.417084
840.000000, 86.389030
841.000000, 86.256119
842.000000, 86.114792
843.000000, 86.021439
844.000000, 85.926750
845.000000, 85.949829
846.000000, 86.039558
847.000000, 85.922211
848.000000, 85.957764
849.000000, 85.958847
850.000000, 86.077728
851.000000, 86.054688
852.000000, 86.081284
853.000000, 86.129303
854.000000, 86.160538
855.000000, 86.454079
856.000000, 86.440208
857.000000, 86.506317
858.000000, 86.613358
859.000000, 86.756203
860.000000, 86.865128
861.000000, 87.078415
862.000000, 87.160667
863.000000, 87.333435
864.000000, 87.408287
865.000000, 87.424568
866.000000, 87.571159
867.000000, 87.624207
868.000000, 87.772217
869.000000, 87.900848
870.000000, 87.879845
871.000000, 87.961472
872.000000, 88.060493
873.000000, 87.967148
874.000000, 88.147957
875.000000, 88.114319
876.000000, 88.076546
877.000000, 88.120880
878.000000, 88.111771
879.000000, 88.106750
880.000000, 87.964920
881.000000, 87.885277
882.000000, 87.837090
883.000000, 87.746460
884.000000, 87.651619
885.000000, 87.591881
886.000000, 87.382339
887.000000, 87.358597
888.000000, 87.235222
889.000000, 87.063858
890.000000, 86.999741
891.000000, 86.784271
892.000000, 86.756226
893.000000, 86.686089
894.000000, 86.515686
895.000000, 86.332718
896.000000, 86.188881
897.000000, 86.087410
898.000000, 85.945908
899.000000, 85.960915
900.000000, 85.918083
901.000000, 85.857895
902.000000, 85.768959
903.000000, 85.723999
904.000000, 85.666672
905.000000, 85.559212
906.000000, 85.589531
907.000000, 85.631599
908.000000, 85.511520
909.000000, 85.578011
910.000000, 85.627342
911.000000, 85.661598
912.000000, 85.663208
913.000000, 85.832748
914.000000, 85.797432
915.000000, 85.723007
916.000000, 86.020401
917.000000, 86.007263
918.000000, 86.098099
919.000000, 86.131882
920.000000, 86.295715
921.000000, 86.390892
922.000000, 86.627167
923.000000, 86.582153
924.000000, 86.768677
925.000000, 86.935768
926.000000, 86.964233
927.000000, 87.102814
928.000000, 87.224861
929.000000, 87.327827
930.000000, 87.410156
931.000000, 87.515961
932.000000, 87.571655
933.000000, 87.602959
934.000000, 87.916054
935.000000, 87.858543
936.000000, 87.859497
937.000000, 87.872276
938.000000, 88.007645
939.000000, 88.044899
940.000000, 88.016663
941.000000, 88.032768
942.000000, 88.010834
943.000000, 88.135971
944.000000, 88.066811
945.000000, 88.099625
946.000000, 87.988029
947.000000, 87.993057
948.000000, 87.963303
949.000000, 87.778152
950.000000, 87.846558
951.000000, 87.777191
952.000000, 87.792458
953.000000, 87.626305
954.000000, 87.625908
955.000000, 87.582222
956.000000, 87.411400
957.000000, 87.333603
958.000000, 87.273277
959.000000, 87.246338
960.000000, 87.125656
961.000000, 87.006432
962.000000, 86.983780
963.000000, 86.977905
964.000000, 86.800072
965.000000, 86.799049
966.000000, 86.770004
967.000000, 86.626045
968.000000, 86.595383
969.000000, 86.534729
970.000000, 86.487656
971.000000, 86.425850
972.000000, 86.342949
973.000000, 86.363281
974.000000, 86.399185
975.000000, 86.374542
976.000000, 86.295486
977.000000, 86.212990
978.000000, 86.224129
979.000000, 86.301796
980.000000, 86.304596
981.000000, 86.317665
982.000000, 86.284119
983.000000, 86.397018
984.000000, 86.480606
985.000000, 86.404678
986.000000, 86.556587
987.000000, 86.593285
988.000000, 86.610451
989.000000, 86.706436
990.000000, 86.630394
991.000000, 86.785263
992.000000, 86.718208
993.000000, 86.897430
994.000000, 86.988823
995.000000, 87.041702
996.000000, 87.180473
997.000000, 87.163437
998.000000, 87.231140
999.000000, 87.254539
1000.000000, 87.384956
1001.000000, 87.393120
1002.000000, 87.478210
1003.000000, 87.537804
1004.000000, 87.562416
1005.000000, 87.674400
1006.000000, 87.717751
1007.000000, 87.725525
1008.000000, 87.791649
1009.000000, 87.774178
1010.000000, 87.817451
1011.000000, 87.811935
1012.000000, 87.819878
1013.000000, 87.816856
1014.000000, 87.764534
1015.000000, 87.818565
1016.000000, 87.869766
1017.000000, 87.750473
1018.000000, 87.791405
1019.000000, 87.774490
1020.000000, 87.814491
1021.000000, 87.738091
1022.000000, 87.682953
1023.000000, 87.633392
1024.000000, 87.468407
1025.000000, 87.589455
1026.000000, 87.427879
1027.000000, 87.286507
1028.000000, 87.204590
1029.000000, 87.173363
1030.000000, 87.128777
1031.000000, 87.061104
1032.000000, 86.954048
1033.000000, 86.868240
1034.000000, 86.820244
1035.000000, 86.740623
1036.000000, 86.581139
1037.000000, 86.564644
1038.000000, 86.398575
1039.000000, 86.377701
1040.000000, 86.263741
1041.000000, 86.079338
1042.000000, 85.991730
1043.000000, 85.871071
1044.000000, 85.900337
1045.000000, 85.860840
1046.000000, 85.803108
1047.000000, 85.523445
1048.000000, 85.593605
1049.000000, 85.497734
1050.000000, 85.529114
1051.000000, 85.388809
1052.000000, 85.294014
1053.000000, 85.239532
1054.000000, 85.160851
1055.000000, 85.235558
1056.000000, 85.144043
1057.000000, 85.111565
1058.000000, 85.024048
1059.000000, 84.999664
1060.000000, 85.070358
1061.000000, 85.114883
1062.000000, 85.046806
1063.000000, 85.037498
1064.000000, 85.085777
1065.000000, 85.061852
1066.000000, 85.159019
1067.000000, 85.078888
1068.000000, 85.064079
1069.000000, 85.211983
1070.000000, 85.160355
1071.000000, 85.263016
1072.000000, 85.252472
1073.000000, 85.348610
1074.000000, 85.372681
1075.000000, 85.401108
1076.000000, 85.504463
1077.000000, 85.534714
1078.000000, 85.616035
