# Wavelength  (nm), Transmission (%)
200.000000, 0.004943
201.000000, 0.004841
202.000000, 0.004785
203.000000, 0.004684
204.000000, 0.004538
205.000000, 0.004501
206.000000, 0.004409
207.000000, 0.004275
208.000000, 0.004155
209.000000, 0.004072
210.000000, 0.003975
211.000000, 0.003886
212.000000, 0.003831
213.000000, 0.003746
214.000000, 0.003676
215.000000, 0.003594
216.000000, 0.003602
217.000000, 0.003530
218.000000, 0.003565
219.000000, 0.003493
220.000000, 0.003502
221.000000, 0.003497
222.000000, 0.003491
223.000000, 0.003498
224.000000, 0.003533
225.000000, 0.003546
226.000000, 0.003564
227.000000, 0.003541
228.000000, 0.003546
229.000000, 0.003512
230.000000, 0.003528
231.000000, 0.003474
232.000000, 0.003504
233.000000, 0.003490
234.000000, 0.003462
235.000000, 0.003412
236.000000, 0.003412
237.000000, 0.003367
238.000000, 0.003318
239.000000, 0.003304
240.000000, 0.003263
241.000000, 0.003230
242.000000, 0.003186
243.000000, 0.003162
244.000000, 0.003113
245.000000, 0.003102
246.000000, 0.003082
247.000000, 0.003074
248.000000, 0.003057
249.000000, 0.003008
250.000000, 0.002983
251.000000, 0.002960
252.000000, 0.002966
253.000000, 0.002936
254.000000, 0.002926
255.000000, 0.002909
256.000000, 0.002870
257.000000, 0.002866
258.000000, 0.002816
259.000000, 0.002824
260.000000, 0.002761
261.000000, 0.002744
262.000000, 0.002750
263.000000, 0.002694
264.000000, 0.002699
265.000000, 0.002684
266.000000, 0.002625
267.000000, 0.002638
268.000000, 0.002595
269.000000, 0.002568
270.000000, 0.002544
271.000000, 0.002572
272.000000, 0.002530
273.000000, 0.002519
274.000000, 0.002471
275.000000, 0.002473
276.000000, 0.002465
277.000000, 0.002458
278.000000, 0.002439
279.000000, 0.002371
280.000000, 0.002390
281.000000, 0.002297
282.000000, 0.002316
283.000000, 0.002318
284.000000, 0.002280
285.000000, 0.002216
286.000000, 0.002210
287.000000, 0.002193
288.000000, 0.002161
289.000000, 0.002104
290.000000, 0.002065
291.000000, 0.002059
292.000000, 0.001990
293.000000, 0.001952
294.000000, 0.001902
295.000000, 0.001836
296.000000, 0.001754
297.000000, 0.001671
298.000000, 0.001570
299.000000, 0.001576
300.000000, 0.001460
301.000000, 0.001438
302.000000, 0.001343
303.000000, 0.001278
304.000000, 0.001239
305.000000, 0.001115
306.000000, 0.001087
307.000000, 0.001023
308.000000, 0.000909
309.000000, 0.000867
310.000000, 0.000795
311.000000, 0.000746
312.000000, 0.000672
313.000000, 0.000621
314.000000, 0.000624
315.000000, 0.000536
316.000000, 0.000500
317.000000, 0.000444
318.000000, 0.000389
319.000000, 0.000373
320.000000, 0.000355
321.000000, 0.000294
322.000000, 0.000278
323.000000, 0.000249
324.000000, 0.000252
325.000000, 0.000211
326.000000, 0.000211
327.000000, 0.000180
328.000000, 0.000168
329.000000, 0.000175
330.000000, 0.000150
331.000000, 0.000131
332.000000, 0.000158
333.000000, 0.000130
334.000000, 0.000104
335.000000, 0.000113
336.000000, 0.000098
337.000000, 0.000088
338.000000, 0.000113
339.000000, 0.000095
340.000000, 0.000086
341.000000, 0.000072
342.000000, 0.000075
343.000000, 0.000070
344.000000, 0.000075
345.000000, 0.000079
346.000000, 0.000066
347.000000, 0.000053
348.000000, 0.000070
349.000000, -0.000087
350.000000, 0.000078
351.000000, 0.000088
352.000000, 0.000104
353.000000, 0.000083
354.000000, 0.000141
355.000000, 0.000181
356.000000, 0.000284
357.000000, 0.000480
358.000000, 0.000823
359.000000, 0.001491
360.000000, 0.002649
361.000000, 0.004798
362.000000, 0.008318
363.000000, 0.014197
364.000000, 0.024027
365.000000, 0.039508
366.000000, 0.063812
367.000000, 0.100980
368.000000, 0.156007
369.000000, 0.235668
370.000000, 0.346529
371.000000, 0.502838
372.000000, 0.709584
373.000000, 0.978352
374.000000, 1.327362
375.000000, 1.779979
376.000000, 2.350371
377.000000, 3.031360
378.000000, 3.837047
379.000000, 4.797202
380.000000, 5.881987
381.000000, 7.140552
382.000000, 8.619160
383.000000, 10.289438
384.000000, 11.968699
385.000000, 13.598794
386.000000, 15.319406
387.000000, 17.307926
388.000000, 19.314886
389.000000, 21.274691
390.000000, 23.496477
391.000000, 26.075035
392.000000, 28.617441
393.000000, 30.384043
394.000000, 30.992815
395.000000, 30.957436
396.000000, 31.621071
397.000000, 34.324554
398.000000, 38.584267
399.000000, 41.782848
400.000000, 42.183117
401.000000, 41.909683
402.000000, 43.348976
403.000000, 43.150478
404.000000, 36.727779
405.000000, 26.847807
406.000000, 19.496281
407.000000, 15.699021
408.000000, 12.382290
409.000000, 8.116133
410.000000, 4.224696
411.000000, 1.959346
412.000000, 0.960759
413.000000, 0.524433
414.000000, 0.315772
415.000000, 0.203400
416.000000, 0.136433
417.000000, 0.095710
418.000000, 0.070517
419.000000, 0.056234
420.000000, 0.050400
421.000000, 0.052913
422.000000, 0.068117
423.000000, 0.092796
424.000000, 0.100447
425.000000, 0.073340
426.000000, 0.036666
427.000000, 0.015799
428.000000, 0.008112
429.000000, 0.005059
430.000000, 0.003741
431.000000, 0.003193
432.000000, 0.003083
433.000000, 0.003364
434.000000, 0.004244
435.000000, 0.006351
436.000000, 0.012227
437.000000, 0.040731
438.000000, 0.163548
439.000000, 0.299182
440.000000, 0.258118
441.000000, 0.121889
442.000000, 0.048772
443.000000, 0.036599
444.000000, 0.038453
445.000000, 0.051616
446.000000, 0.090161
447.000000, 0.225065
448.000000, 1.408304
449.000000, 6.367751
450.000000, 11.067266
451.000000, 6.820635
452.000000, 3.874191
453.000000, 3.113034
454.000000, 6.985170
455.000000, 16.456717
456.000000, 22.371119
457.000000, 16.411325
458.000000, 7.844924
459.000000, 4.851676
460.000000, 5.406731
461.000000, 9.592749
462.000000, 18.428658
463.000000, 24.950071
464.000000, 20.987944
465.000000, 12.220941
466.000000, 7.120722
467.000000, 5.808091
468.000000, 6.483883
469.000000, 9.455709
470.000000, 16.032930
471.000000, 24.982353
472.000000, 29.267035
473.000000, 25.527668
474.000000, 19.217541
475.000000, 15.845941
476.000000, 16.181343
477.000000, 20.349642
478.000000, 29.002035
479.000000, 40.215122
480.000000, 46.962181
481.000000, 44.542641
482.000000, 37.240883
483.000000, 31.925789
484.000000, 31.164953
485.000000, 35.189804
486.000000, 43.622730
487.000000, 53.797424
488.000000, 59.738384
489.000000, 57.525051
490.000000, 49.933151
491.000000, 43.080700
492.000000, 39.858791
493.000000, 40.866470
494.000000, 45.961609
495.000000, 54.391254
496.000000, 63.830101
497.000000, 70.411911
498.000000, 71.332375
499.000000, 67.681313
500.000000, 62.923126
501.000000, 59.948776
502.000000, 59.686893
503.000000, 61.708347
504.000000, 64.610039
505.000000, 66.666862
506.000000, 66.566505
507.000000, 64.289322
508.000000, 60.991497
509.000000, 58.215012
510.000000, 56.869678
511.000000, 57.420670
512.000000, 59.695923
513.000000, 63.127731
514.000000, 66.689583
515.000000, 69.331894
516.000000, 70.351318
517.000000, 69.920822
518.000000, 68.741936
519.000000, 67.716240
520.000000, 67.416725
521.000000, 68.089745
522.000000, 69.482689
523.000000, 71.101303
524.000000, 72.343376
525.000000, 72.728691
526.000000, 72.219383
527.000000, 71.116295
528.000000, 69.978149
529.000000, 69.324059
530.000000, 69.545502
531.000000, 70.756439
532.000000, 72.832886
533.000000, 75.355301
534.000000, 77.823486
535.000000, 79.568222
536.000000, 80.191597
537.000000, 79.574661
538.000000, 78.000916
539.000000, 75.942993
540.000000, 74.050552
541.000000, 72.536858
542.000000, 71.806900
543.000000, 71.910217
544.000000, 72.813828
545.000000, 74.346436
546.000000, 76.349800
547.000000, 78.398468
548.000000, 80.196754
549.000000, 81.420174
550.000000, 81.800217
551.000000, 81.374130
552.000000, 80.294426
553.000000, 78.928566
554.000000, 77.552139
555.000000, 76.551041
556.000000, 76.114212
557.000000, 76.417580
558.000000, 77.401360
559.000000, 78.938217
560.000000, 80.831383
561.000000, 82.726738
562.000000, 84.309799
563.000000, 85.287567
564.000000, 85.504852
565.000000, 85.023544
566.000000, 84.068336
567.000000, 82.987282
568.000000, 82.134308
569.000000, 81.561455
570.000000, 81.556953
571.000000, 82.026070
572.000000, 82.848824
573.000000, 83.895432
574.000000, 84.772598
575.000000, 85.388588
576.000000, 85.531052
577.000000, 85.294434
578.000000, 84.717796
579.000000, 84.079254
580.000000, 83.538132
581.000000, 83.343483
582.000000, 83.492813
583.000000, 84.107033
584.000000, 84.959000
585.000000, 85.984299
586.000000, 86.868706
587.000000, 87.444153
588.000000, 87.545792
589.000000, 87.185318
590.000000, 86.401192
591.000000, 85.383835
592.000000, 84.331856
593.000000, 83.424202
594.000000, 82.841362
595.000000, 82.616074
596.000000, 82.710457
597.000000, 83.107986
598.000000, 83.681877
599.000000, 84.226242
600.000000, 84.684509
601.000000, 84.927132
602.000000, 84.989838
603.000000, 84.890503
604.000000, 84.646820
605.000000, 84.506943
606.000000, 84.491638
607.000000, 84.688583
608.000000, 85.135941
609.000000, 85.751053
610.000000, 86.480423
611.000000, 87.219437
612.000000, 87.774841
613.000000, 88.082214
614.000000, 88.065483
615.000000, 87.703880
616.000000, 87.159439
617.000000, 86.427933
618.000000, 85.784012
619.000000, 85.257820
620.000000, 84.969955
621.000000, 85.010757
622.000000, 85.317574
623.000000, 85.836395
624.000000, 86.528923
625.000000, 87.188210
626.000000, 87.713478
627.000000, 88.074043
628.000000, 88.123985
629.000000, 87.994164
630.000000, 87.572006
631.000000, 87.159767
632.000000, 86.685974
633.000000, 86.354431
634.000000, 86.196991
635.000000, 86.249863
636.000000, 86.487617
637.000000, 86.862328
638.000000, 87.274078
639.000000, 87.669640
640.000000, 87.940697
641.000000, 88.104126
642.000000, 88.121971
643.000000, 87.968391
644.000000, 87.800568
645.000000, 87.562569
646.000000, 87.401604
647.000000, 87.352379
648.000000, 87.414078
649.000000, 87.580086
650.000000, 87.783691
651.000000, 87.950668
652.000000, 88.000832
653.000000, 87.842720
654.000000, 87.481522
655.000000, 86.922615
656.000000, 86.252594
657.000000, 85.509781
658.000000, 84.904663
659.000000, 84.470024
660.000000, 84.303596
661.000000, 84.402496
662.000000, 84.807991
663.000000, 85.367592
664.000000, 86.028984
665.000000, 86.613449
666.000000, 87.022041
667.000000, 87.090698
668.000000, 86.855782
669.000000, 86.313950
670.000000, 85.626320
671.000000, 84.926834
672.000000, 84.420677
673.000000, 84.171204
674.000000, 84.241760
675.000000, 84.677162
676.000000, 85.333839
677.000000, 86.085686
678.000000, 86.751427
679.000000, 87.098763
680.000000, 87.092636
681.000000, 86.766281
682.000000, 86.270180
683.000000, 85.776604
684.000000, 85.494698
685.000000, 85.476425
686.000000, 85.674149
687.000000, 85.678818
688.000000, 85.198067
689.000000, 83.898804
690.000000, 81.842720
691.000000, 79.512398
692.000000, 77.766838
693.000000, 77.577347
694.000000, 78.781853
695.000000, 78.197006
696.000000, 69.845284
697.000000, 51.399006
698.000000, 29.143206
699.000000, 14.674635
700.000000, 6.085863
701.000000, 2.961819
702.000000, 1.375792
703.000000, 0.667329
704.000000, 0.339970
705.000000, 0.178167
706.000000, 0.096403
707.000000, 0.053708
708.000000, 0.030544
709.000000, 0.018075
710.000000, 0.010935
711.000000, 0.006911
712.000000, 0.004482
713.000000, 0.003020
714.000000, 0.002133
715.000000, 0.001565
716.000000, 0.001155
717.000000, 0.000910
718.000000, 0.000736
719.000000, 0.000573
720.000000, 0.000499
721.000000, 0.000418
722.000000, 0.000361
723.000000, 0.000334
724.000000, 0.000278
725.000000, 0.000247
726.000000, 0.000224
727.000000, 0.000226
728.000000, 0.000185
729.000000, 0.000174
730.000000, 0.000158
731.000000, 0.000145
732.000000, 0.000150
733.000000, 0.000124
734.000000, 0.000116
735.000000, 0.000118
736.000000, 0.000117
737.000000, 0.000098
738.000000, 0.000093
739.000000, 0.000088
740.000000, 0.000090
741.000000, 0.000099
742.000000, 0.000087
743.000000, 0.000082
744.000000, 0.000074
745.000000, 0.000090
746.000000, 0.000078
747.000000, 0.000077
748.000000, 0.000074
749.000000, 0.000064
750.000000, 0.000080
751.000000, 0.000069
752.000000, 0.000065
753.000000, 0.000062
754.000000, 0.000078
755.000000, 0.000073
756.000000, 0.000066
757.000000, 0.000054
758.000000, 0.000065
759.000000, 0.000070
760.000000, 0.000061
761.000000, 0.000062
762.000000, 0.000065
763.000000, 0.000068
764.000000, 0.000052
765.000000, 0.000065
766.000000, 0.000062
767.000000, 0.000058
768.000000, 0.000075
769.000000, 0.000054
770.000000, 0.000062
771.000000, 0.000063
772.000000, 0.000055
773.000000, 0.000066
774.000000, 0.000052
775.000000, 0.000067
776.000000, 0.000054
777.000000, 0.000052
778.000000, 0.000064
779.000000, 0.000049
780.000000, 0.000061
781.000000, 0.000059
782.000000, 0.000052
783.000000, 0.000063
784.000000, 0.000046
785.000000, 0.000047
786.000000, 0.000052
787.000000, 0.000050
788.000000, 0.000067
789.000000, 0.000045
790.000000, 0.000053
791.000000, 0.000046
792.000000, 0.000047
793.000000, 0.000062
794.000000, 0.000045
795.000000, 0.000050
796.000000, 0.000058
797.000000, 0.000057
798.000000, 0.000070
799.000000, 0.000044
800.000000, 0.000460
801.000000, 0.000559
802.000000, 0.000417
803.000000, 0.000744
804.000000, 0.000487
805.000000, 0.000459
806.000000, 0.000403
807.000000, 0.000557
808.000000, 0.000827
809.000000, 0.000451
810.000000, 0.000433
811.000000, 0.000441
812.000000, 0.000536
813.000000, 0.000286
814.000000, 0.000183
815.000000, 0.000387
816.000000, 0.000793
817.000000, 0.000674
818.000000, 0.000599
819.000000, 0.000342
820.000000, 0.000467
821.000000, 0.000514
822.000000, 0.000590
823.000000, 0.000548
824.000000, 0.000505
825.000000, 0.000388
826.000000, 0.000679
827.000000, 0.000696
828.000000, 0.000501
829.000000, 0.000670
830.000000, 0.000698
831.000000, 0.000325
832.000000, 0.000600
833.000000, 0.000509
834.000000, 0.000698
835.000000, 0.000746
836.000000, 0.000469
837.000000, 0.000499
838.000000, 0.000583
839.000000, 0.000749
840.000000, 0.000485
841.000000, 0.000519
842.000000, 0.000461
843.000000, 0.000698
844.000000, 0.000578
845.000000, 0.000601
846.000000, 0.000504
847.000000, 0.000615
848.000000, 0.000432
849.000000, 0.000403
850.000000, 0.000432
851.000000, 0.000416
852.000000, 0.000625
853.000000, 0.000407
854.000000, 0.000447
855.000000, 0.000443
856.000000, 0.000561
857.000000, 0.000331
858.000000, 0.000436
859.000000, 0.000598
860.000000, 0.000518
861.000000, 0.000523
862.000000, 0.000519
863.000000, 0.000563
864.000000, 0.000646
865.000000, 0.000600
866.000000, 0.000556
867.000000, 0.000552
868.000000, 0.000549
869.000000, 0.000504
870.000000, 0.000511
871.000000, 0.000382
872.000000, 0.000431
873.000000, 0.000436
874.000000, 0.000464
875.000000, 0.000462
876.000000, 0.000386
877.000000, 0.000508
878.000000, 0.000420
879.000000, 0.000471
880.000000, 0.000532
881.000000, 0.000468
882.000000, 0.000405
883.000000, 0.000429
884.000000, 0.000400
885.000000, 0.000382
886.000000, 0.000384
887.000000, 0.000379
888.000000, 0.000441
889.000000, 0.000483
890.000000, 0.000384
891.000000, 0.000472
892.000000, 0.000440
893.000000, 0.000416
894.000000, 0.000363
895.000000, 0.000410
896.000000, 0.000404
897.000000, 0.000425
898.000000, 0.000415
899.000000, 0.000464
900.000000, 0.000444
901.000000, 0.000356
902.000000, 0.000397
903.000000, 0.000463
904.000000, 0.000425
905.000000, 0.000472
906.000000, 0.000339
907.000000, 0.000436
908.000000, 0.000369
909.000000, 0.000387
910.000000, 0.000413
911.000000, 0.000383
912.000000, 0.000446
913.000000, 0.000423
914.000000, 0.000435
915.000000, 0.000299
916.000000, 0.000467
917.000000, 0.000420
918.000000, 0.000437
919.000000, 0.000358
920.000000, 0.000433
921.000000, 0.000420
922.000000, 0.000364
923.000000, 0.000373
924.000000, 0.000377
925.000000, 0.000397
926.000000, 0.000360
927.000000, 0.000364
928.000000, 0.000438
929.000000, 0.000369
930.000000, 0.000409
931.000000, 0.000341
932.000000, 0.000368
933.000000, 0.000483
934.000000, 0.000402
935.000000, 0.000403
936.000000, 0.000357
937.000000, 0.000369
938.000000, 0.000471
939.000000, 0.000438
940.000000, 0.000371
941.000000, 0.000393
942.000000, 0.000455
943.000000, 0.000437
944.000000, 0.000458
945.000000, 0.000392
946.000000, 0.000453
947.000000, 0.000457
948.000000, 0.000553
949.000000, 0.000412
950.000000, 0.000411
951.000000, 0.000413
952.000000, 0.000444
953.000000, 0.000456
954.000000, 0.000514
955.000000, 0.000395
956.000000, 0.000440
957.000000, 0.000425
958.000000, 0.000374
959.000000, 0.000426
960.000000, 0.000396
961.000000, 0.000533
962.000000, 0.000510
963.000000, 0.000554
964.000000, 0.000614
965.000000, 0.000795
966.000000, 0.000888
967.000000, 0.000949
968.000000, 0.001218
969.000000, 0.001506
970.000000, 0.002232
971.000000, 0.003682
972.000000, 0.008381
973.000000, 0.029627
974.000000, 0.094412
975.000000, 0.210290
976.000000, 0.347255
977.000000, 0.488126
978.000000, 0.627879
979.000000, 0.770412
980.000000, 0.916505
981.000000, 1.056424
982.000000, 1.198045
983.000000, 1.315721
984.000000, 1.340429
985.000000, 1.261294
986.000000, 1.146634
987.000000, 1.028051
988.000000, 0.911704
989.000000, 0.801800
990.000000, 0.712547
991.000000, 0.669777
992.000000, 0.754520
993.000000, 1.155083
994.000000, 2.064830
995.000000, 2.905907
996.000000, 3.830820
997.000000, 4.846314
998.000000, 6.285309
999.000000, 8.871085
1000.000000, 13.250354
1001.000000, 22.062101
1002.000000, 32.039791
1003.000000, 31.237715
1004.000000, 22.949142
1005.000000, 15.995407
1006.000000, 11.403469
1007.000000, 8.439977
1008.000000, 6.412319
1009.000000, 5.017926
1010.000000, 4.211280
1011.000000, 3.331079
1012.000000, 2.700249
1013.000000, 2.597975
1014.000000, 2.774701
1015.000000, 3.176334
1016.000000, 3.624633
1017.000000, 4.210613
1018.000000, 5.024296
1019.000000, 6.121869
1020.000000, 7.890508
1021.000000, 10.576546
1022.000000, 14.673437
1023.000000, 21.585875
1024.000000, 33.139629
1025.000000, 50.291698
1026.000000, 67.207428
1027.000000, 69.586296
1028.000000, 56.124676
1029.000000, 40.929169
1030.000000, 28.870279
1031.000000, 21.263685
1032.000000, 16.278788
1033.000000, 12.970745
1034.000000, 10.747097
1035.000000, 9.384525
1036.000000, 8.449294
1037.000000, 7.847591
1038.000000, 7.522799
1039.000000, 7.381911
1040.000000, 7.435926
1041.000000, 7.671096
1042.000000, 8.084326
1043.000000, 8.691619
1044.000000, 9.534918
1045.000000, 10.657360
1046.000000, 12.230269
1047.000000, 14.367825
1048.000000, 17.097061
1049.000000, 20.941675
1050.000000, 26.175768
1051.000000, 33.354614
1052.000000, 43.313202
1053.000000, 56.508507
1054.000000, 70.492798
1055.000000, 81.993172
1056.000000, 85.876312
1057.000000, 80.479149
1058.000000, 69.135658
1059.000000, 56.325764
1060.000000, 45.658188
1061.000000, 37.079296
1062.000000, 30.859148
1063.000000, 26.095692
1064.000000, 22.685577
1065.000000, 20.008738
1066.000000, 18.047503
1067.000000, 16.599642
1068.000000, 15.553932
1069.000000, 14.840707
1070.000000, 14.350756
1071.000000, 14.081782
1072.000000, 14.023582
1073.000000, 14.151035
1074.000000, 14.461848
1075.000000, 14.985214
1076.000000, 15.673058
1077.000000, 16.666574
1078.000000, 17.908384
1079.000000, 19.479856
1080.000000, 21.397148
1081.000000, 23.806265
1082.000000, 26.812992
1083.000000, 30.446964
1084.000000, 35.149952
1085.000000, 41.030296
1086.000000, 47.709259
1087.000000, 55.844612
