# Wavelength  (nm), Transmission (%)
200.000000, 0.906726
201.000000, 0.777654
202.000000, 0.696104
203.000000, 0.570009
204.000000, 0.474512
205.000000, 0.444110
206.000000, 0.375701
207.000000, 0.293915
208.000000, 0.257270
209.000000, 0.220271
210.000000, 0.211631
211.000000, 0.181095
212.000000, 0.152346
213.000000, 0.133642
214.000000, 0.113513
215.000000, 0.109399
216.000000, 0.094604
217.000000, 0.080947
218.000000, 0.083180
219.000000, 0.077927
220.000000, 0.067682
221.000000, 0.067742
222.000000, 0.054825
223.000000, 0.054551
224.000000, 0.039886
225.000000, 0.051448
226.000000, 0.045467
227.000000, 0.039936
228.000000, 0.039135
229.000000, 0.038335
230.000000, 0.040000
231.000000, 0.040886
232.000000, 0.034173
233.000000, 0.033944
234.000000, 0.035062
235.000000, 0.031154
236.000000, 0.023782
237.000000, 0.029595
238.000000, 0.027361
239.000000, 0.025684
240.000000, 0.028148
241.000000, 0.032182
242.000000, 0.024120
243.000000, 0.027258
244.000000, 0.028154
245.000000, 0.025688
246.000000, 0.031065
247.000000, 0.025016
248.000000, 0.025800
249.000000, 0.024903
250.000000, 0.025909
251.000000, 0.023671
252.000000, 0.029262
253.000000, 0.024006
254.000000, 0.023223
255.000000, 0.026349
256.000000, 0.025120
257.000000, 0.022888
258.000000, 0.031027
259.000000, 0.026790
260.000000, 0.023891
261.000000, 0.023780
262.000000, 0.026899
263.000000, 0.025674
264.000000, 0.029576
265.000000, 0.027793
266.000000, 0.029353
267.000000, 0.027461
268.000000, 0.030697
269.000000, 0.028133
270.000000, 0.032821
271.000000, 0.029140
272.000000, 0.032600
273.000000, 0.031375
274.000000, 0.033273
275.000000, 0.029363
276.000000, 0.034608
277.000000, 0.027129
278.000000, 0.031035
279.000000, 0.028135
280.000000, 0.029806
281.000000, 0.027239
282.000000, 0.029804
283.000000, 0.024673
284.000000, 0.026681
285.000000, 0.025454
286.000000, 0.026011
287.000000, 0.024226
288.000000, 0.025119
289.000000, 0.024784
290.000000, 0.024003
291.000000, 0.023669
292.000000, 0.020771
293.000000, 0.023000
294.000000, 0.025006
295.000000, 0.021329
296.000000, 0.021997
297.000000, 0.026232
298.000000, 0.021663
299.000000, 0.025674
300.000000, 0.025005
301.000000, 0.028570
302.000000, 0.021440
303.000000, 0.028905
304.000000, 0.026677
305.000000, 0.027901
306.000000, 0.030018
307.000000, 0.034140
308.000000, 0.027456
309.000000, 0.032026
310.000000, 0.029798
311.000000, 0.033806
312.000000, 0.035477
313.000000, 0.037925
314.000000, 0.031130
315.000000, 0.036593
316.000000, 0.032912
317.000000, 0.035364
318.000000, 0.036601
319.000000, 0.036270
320.000000, 0.035146
321.000000, 0.037730
322.000000, 0.038397
323.000000, 0.036592
324.000000, 0.041303
325.000000, 0.038046
326.000000, 0.037482
327.000000, 0.039841
328.000000, 0.038594
329.000000, 0.044978
330.000000, 0.106074
331.000000, 0.188540
332.000000, 0.181244
333.000000, 0.111418
334.000000, 0.055365
335.000000, 0.040131
336.000000, 0.040684
337.000000, 0.042026
338.000000, 0.037100
339.000000, 0.041012
340.000000, 0.038319
341.000000, 0.038871
342.000000, 0.041098
343.000000, 0.054375
344.000000, 0.078934
345.000000, 0.097577
346.000000, 0.074445
347.000000, 0.049322
348.000000, 0.045522
349.000000, 0.046965
350.000000, 0.044171
351.000000, 0.051296
352.000000, 0.051287
353.000000, 0.057059
354.000000, 0.056492
355.000000, 0.048921
356.000000, 0.039903
357.000000, 0.043685
358.000000, 0.040672
359.000000, 0.042329
360.000000, 0.043105
361.000000, 0.044652
362.000000, 0.039432
363.000000, 0.044420
364.000000, 0.039861
365.000000, 0.041077
366.000000, 0.039739
367.000000, 0.042943
368.000000, 0.037178
369.000000, 0.041607
370.000000, 0.039271
371.000000, 0.039925
372.000000, 0.040140
373.000000, 0.042784
374.000000, 0.036149
375.000000, 0.041659
376.000000, 0.037560
377.000000, 0.038328
378.000000, 0.040773
379.000000, 0.042727
380.000000, 0.039744
381.000000, 0.042043
382.000000, 0.041712
383.000000, 0.041707
384.000000, 0.040054
385.000000, 0.042802
386.000000, 0.038390
387.000000, 0.039699
388.000000, 0.040684
389.000000, 0.044195
390.000000, 0.048799
391.000000, 0.073491
392.000000, 0.176360
393.000000, 2.374362
394.000000, 14.969137
395.000000, 44.470598
396.000000, 77.816333
397.000000, 94.635667
398.000000, 96.869979
399.000000, 96.959202
400.000000, 97.023951
401.000000, 97.068453
402.000000, 97.091607
403.000000, 97.185589
404.000000, 97.190912
405.000000, 97.291434
406.000000, 97.424649
407.000000, 97.489055
408.000000, 97.511075
409.000000, 97.579371
410.000000, 97.568387
411.000000, 97.621322
412.000000, 97.666827
413.000000, 97.604417
414.000000, 97.559468
415.000000, 97.648786
416.000000, 97.597365
417.000000, 97.545190
418.000000, 97.549941
419.000000, 97.488788
420.000000, 97.369407
421.000000, 97.276100
422.000000, 97.137638
423.000000, 97.162427
424.000000, 97.156987
425.000000, 97.045041
426.000000, 97.013896
427.000000, 97.059700
428.000000, 97.066360
429.000000, 97.175044
430.000000, 97.307679
431.000000, 97.339776
432.000000, 97.374705
433.000000, 97.458895
434.000000, 97.459034
435.000000, 97.536006
436.000000, 97.640738
437.000000, 97.655956
438.000000, 97.687955
439.000000, 97.841997
440.000000, 97.966003
441.000000, 98.090969
442.000000, 98.168189
443.000000, 98.178415
444.000000, 98.242567
445.000000, 98.329575
446.000000, 98.318397
447.000000, 98.373858
448.000000, 98.416596
449.000000, 98.431028
450.000000, 98.419274
451.000000, 98.396414
452.000000, 98.429666
453.000000, 98.409827
454.000000, 98.344436
455.000000, 98.307999
456.000000, 98.264356
457.000000, 98.196476
458.000000, 98.181414
459.000000, 98.169888
460.000000, 98.129585
461.000000, 98.072919
462.000000, 98.047386
463.000000, 98.039262
464.000000, 98.044316
465.000000, 98.004124
466.000000, 97.984726
467.000000, 98.038120
468.000000, 98.097112
469.000000, 98.094710
470.000000, 98.135559
471.000000, 98.194356
472.000000, 98.228777
473.000000, 98.244168
474.000000, 98.267650
475.000000, 98.306759
476.000000, 98.391378
477.000000, 98.444846
478.000000, 98.466146
479.000000, 98.490082
480.000000, 98.514479
481.000000, 98.547953
482.000000, 98.574089
483.000000, 98.583525
484.000000, 98.553035
485.000000, 98.508129
486.000000, 98.480732
487.000000, 98.463845
488.000000, 98.459029
489.000000, 98.410906
490.000000, 98.328808
491.000000, 98.297640
492.000000, 98.277969
493.000000, 98.231796
494.000000, 98.187329
495.000000, 98.142882
496.000000, 98.089506
497.000000, 98.031826
498.000000, 97.994770
499.000000, 97.989522
500.000000, 97.980415
501.000000, 97.930457
502.000000, 97.859575
503.000000, 97.825305
504.000000, 97.861113
505.000000, 97.885445
506.000000, 97.882379
507.000000, 97.899993
508.000000, 97.882501
509.000000, 97.885924
510.000000, 97.982118
511.000000, 98.050609
512.000000, 98.079193
513.000000, 98.094907
514.000000, 98.074316
515.000000, 98.061696
516.000000, 98.153488
517.000000, 98.271385
518.000000, 98.355674
519.000000, 98.419369
520.000000, 98.396341
521.000000, 98.316559
522.000000, 98.329734
523.000000, 98.406412
524.000000, 98.473692
525.000000, 98.549337
526.000000, 98.575038
527.000000, 98.516152
528.000000, 98.536864
529.000000, 98.538520
530.000000, 98.519492
531.000000, 98.514847
532.000000, 98.454176
533.000000, 98.369887
534.000000, 98.356787
535.000000, 98.349731
536.000000, 98.315286
537.000000, 98.288290
538.000000, 98.222433
539.000000, 98.154664
540.000000, 98.145304
541.000000, 98.084067
542.000000, 98.014628
543.000000, 97.967016
544.000000, 97.870027
545.000000, 97.825815
546.000000, 97.864380
547.000000, 97.853548
548.000000, 97.809134
549.000000, 97.788735
550.000000, 97.729989
551.000000, 97.689338
552.000000, 97.718232
553.000000, 97.712848
554.000000, 97.697561
555.000000, 97.721389
556.000000, 97.710448
557.000000, 97.739472
558.000000, 97.838422
559.000000, 97.858209
560.000000, 97.843424
561.000000, 97.883858
562.000000, 97.970772
563.000000, 98.019765
564.000000, 98.039815
565.000000, 98.094794
566.000000, 98.110534
567.000000, 98.091972
568.000000, 98.119623
569.000000, 98.125560
570.000000, 98.172292
571.000000, 98.296352
572.000000, 98.292414
573.000000, 98.295643
574.000000, 98.332948
575.000000, 98.318166
576.000000, 98.292048
577.000000, 98.362264
578.000000, 98.312498
579.000000, 98.224862
580.000000, 98.196359
581.000000, 98.170235
582.000000, 98.175359
583.000000, 98.257134
584.000000, 98.199296
585.000000, 98.102550
586.000000, 98.076438
587.000000, 97.985821
588.000000, 97.846526
589.000000, 97.807041
590.000000, 97.722942
591.000000, 97.638005
592.000000, 97.573275
593.000000, 97.427650
594.000000, 97.218629
595.000000, 96.903368
596.000000, 96.116636
597.000000, 88.707892
598.000000, 62.927623
599.000000, 26.563502
600.000000, 5.102472
601.000000, 0.393741
602.000000, 0.046565
603.000000, 0.009470
604.000000, 0.000939
605.000000, 0.000504
606.000000, 0.000195
607.000000, 0.000215
608.000000, 0.000966
609.000000, 0.000092
610.000000, 0.000439
611.000000, 0.000391
612.000000, 0.000201
613.000000, 0.000398
614.000000, 0.000609
615.000000, 0.000398
616.000000, 0.000670
617.000000, 0.000105
618.000000, 0.000241
619.000000, 0.000398
620.000000, 0.000153
621.000000, 0.000098
622.000000, 0.000479
623.000000, 0.000200
624.000000, 0.000179
625.000000, 0.000486
626.000000, 0.000302
627.000000, 0.000172
628.000000, 0.000376
629.000000, 0.000186
630.000000, 0.000158
631.000000, 0.000437
632.000000, 0.000124
633.000000, 0.000158
634.000000, 0.000511
635.000000, 0.000321
636.000000, 0.000260
637.000000, 0.000511
638.000000, 0.000226
639.000000, 0.000321
640.000000, 0.000402
641.000000, 0.000286
642.000000, 0.000225
643.000000, 0.000443
644.000000, 0.000218
645.000000, 0.000313
646.000000, 0.000286
647.000000, 0.000354
648.000000, 0.000306
649.000000, 0.000415
650.000000, 0.000075
651.000000, 0.000245
652.000000, 0.000401
653.000000, 0.000238
654.000000, 0.000021
655.000000, 0.000387
656.000000, 0.000190
657.000000, 0.000183
658.000000, 0.000345
659.000000, 0.000352
660.000000, 0.000237
661.000000, 0.000467
662.000000, 0.000176
663.000000, 0.000392
664.000000, 0.000371
665.000000, 0.000175
666.000000, 0.000175
667.000000, 0.000365
668.000000, 0.000317
669.000000, 0.000472
670.000000, 0.000445
671.000000, 0.000127
672.000000, 0.000363
673.000000, 0.000215
674.000000, 0.000154
675.000000, 0.000289
676.000000, 0.000579
677.000000, 0.000207
678.000000, 0.000301
679.000000, 0.000248
680.000000, 0.000457
681.000000, 0.000429
682.000000, 0.000429
683.000000, 0.000382
684.000000, 0.000341
685.000000, 0.000139
686.000000, 0.000368
687.000000, 0.000219
688.000000, 0.000273
689.000000, 0.000381
690.000000, 0.000239
691.000000, 0.000454
692.000000, 0.000374
693.000000, 0.000346
694.000000, 0.000198
695.000000, 0.000386
696.000000, 0.000298
697.000000, 0.000332
698.000000, 0.000238
699.000000, 0.000392
700.000000, 0.000251
701.000000, 0.000546
702.000000, 0.000284
703.000000, 0.000317
704.000000, 0.000304
705.000000, 0.000304
706.000000, 0.000377
707.000000, 0.000410
708.000000, 0.000444
709.000000, 0.000330
710.000000, 0.000350
711.000000, 0.000430
712.000000, 0.000336
713.000000, 0.000289
714.000000, 0.000463
715.000000, 0.000221
716.000000, 0.000348
717.000000, 0.000341
718.000000, 0.000401
719.000000, 0.000381
720.000000, 0.000535
721.000000, 0.000307
722.000000, 0.000400
723.000000, 0.000340
724.000000, 0.000520
725.000000, 0.000453
726.000000, 0.000366
727.000000, 0.000245
728.000000, 0.000352
729.000000, 0.000412
730.000000, 0.000471
731.000000, 0.000485
732.000000, 0.000484
733.000000, 0.000337
734.000000, 0.000484
735.000000, 0.000424
736.000000, 0.000416
737.000000, 0.000576
738.000000, 0.000449
739.000000, 0.000329
740.000000, 0.000429
741.000000, 0.000482
742.000000, 0.000435
743.000000, 0.000614
744.000000, 0.000481
745.000000, 0.000341
746.000000, 0.000474
747.000000, 0.000440
748.000000, 0.000360
749.000000, 0.000592
750.000000, 0.000386
751.000000, 0.000366
752.000000, 0.000485
753.000000, 0.000478
754.000000, 0.000385
755.000000, 0.000663
756.000000, 0.000497
757.000000, 0.000470
758.000000, 0.000404
759.000000, 0.000482
760.000000, 0.000403
761.000000, 0.000614
762.000000, 0.000455
763.000000, 0.000488
764.000000, 0.000461
765.000000, 0.000481
766.000000, 0.000427
767.000000, 0.000685
768.000000, 0.000460
769.000000, 0.000440
770.000000, 0.000400
771.000000, 0.000512
772.000000, 0.000452
773.000000, 0.000649
774.000000, 0.000385
775.000000, 0.000451
776.000000, 0.000477
777.000000, 0.000536
778.000000, 0.000450
779.000000, 0.000614
780.000000, 0.000443
781.000000, 0.000469
782.000000, 0.000548
783.000000, 0.000547
784.000000, 0.000540
785.000000, 0.000612
786.000000, 0.000645
787.000000, 0.000618
788.000000, 0.000414
789.000000, 0.000703
790.000000, 0.000584
791.000000, 0.000656
792.000000, 0.000478
793.000000, 0.000590
794.000000, 0.000596
795.000000, 0.000563
796.000000, 0.000530
797.000000, 0.000647
798.000000, 0.000627
799.000000, 0.000673
800.000000, 0.000555
801.000000, 0.000554
802.000000, 0.000646
803.000000, 0.000678
804.000000, 0.000527
805.000000, 0.000468
806.000000, 0.000521
807.000000, 0.000540
808.000000, 0.000592
809.000000, 0.000618
810.000000, 0.000500
811.000000, 0.000591
812.000000, 0.000728
813.000000, 0.000636
814.000000, 0.000643
815.000000, 0.000565
816.000000, 0.000512
817.000000, 0.000610
818.000000, 0.000740
819.000000, 0.000669
820.000000, 0.000695
821.000000, 0.000675
822.000000, 0.000636
823.000000, 0.000689
824.000000, 0.000780
825.000000, 0.000676
826.000000, 0.000683
827.000000, 0.000644
828.000000, 0.000651
829.000000, 0.000730
830.000000, 0.000789
831.000000, 0.000705
832.000000, 0.000816
833.000000, 0.000738
834.000000, 0.000739
835.000000, 0.000779
836.000000, 0.000865
837.000000, 0.000702
838.000000, 0.000768
839.000000, 0.000684
840.000000, 0.000744
841.000000, 0.000817
842.000000, 0.000851
843.000000, 0.000713
844.000000, 0.000774
845.000000, 0.000683
846.000000, 0.000716
847.000000, 0.000796
848.000000, 0.000823
849.000000, 0.000718
850.000000, 0.000725
851.000000, 0.000627
852.000000, 0.000674
853.000000, 0.000820
854.000000, 0.000900
855.000000, 0.000774
856.000000, 0.000768
857.000000, 0.000736
858.000000, 0.000815
859.000000, 0.000803
860.000000, 0.000609
861.000000, 0.000466
862.000000, 0.000673
863.000000, 0.000801
864.000000, 0.000794
865.000000, 0.000716
866.000000, 0.000631
867.000000, 0.000463
868.000000, 0.000431
869.000000, 0.000657
870.000000, 0.000808
871.000000, 0.000879
872.000000, 0.000852
873.000000, 0.000597
874.000000, 0.000370
875.000000, 0.000433
876.000000, 0.000637
877.000000, 0.000740
878.000000, 0.000841
879.000000, 0.000829
880.000000, 0.000649
881.000000, 0.000595
882.000000, 0.000704
883.000000, 0.000735
884.000000, 0.000644
885.000000, 0.000540
886.000000, 0.000481
887.000000, 0.000506
888.000000, 0.000681
889.000000, 0.000939
890.000000, 0.000879
891.000000, 0.000680
892.000000, 0.000603
893.000000, 0.000556
894.000000, 0.000578
895.000000, 0.000632
896.000000, 0.000681
897.000000, 0.000689
898.000000, 0.000735
899.000000, 0.000804
900.000000, 0.000665
901.000000, 0.000530
902.000000, 0.000530
903.000000, 0.000605
904.000000, 0.000700
905.000000, 0.000742
906.000000, 0.000628
907.000000, 0.000522
908.000000, 0.000599
909.000000, 0.000780
910.000000, 0.000779
911.000000, 0.000646
912.000000, 0.000677
913.000000, 0.000762
914.000000, 0.000677
915.000000, 0.000574
916.000000, 0.000587
917.000000, 0.000690
918.000000, 0.000665
919.000000, 0.000649
920.000000, 0.000748
921.000000, 0.000635
922.000000, 0.000534
923.000000, 0.000539
924.000000, 0.000646
925.000000, 0.000746
926.000000, 0.000702
927.000000, 0.000707
928.000000, 0.000631
929.000000, 0.000640
930.000000, 0.000738
931.000000, 0.000929
932.000000, 0.000726
933.000000, 0.000378
934.000000, 0.000525
935.000000, 0.000753
936.000000, 0.000654
937.000000, 0.000618
938.000000, 0.000649
939.000000, 0.000684
940.000000, 0.000757
941.000000, 0.000606
942.000000, 0.000591
943.000000, 0.000727
944.000000, 0.000644
945.000000, 0.000674
946.000000, 0.000895
947.000000, 0.000883
948.000000, 0.000575
949.000000, 0.000350
950.000000, 0.000563
951.000000, 0.000851
952.000000, 0.000800
953.000000, 0.000650
954.000000, 0.000640
955.000000, 0.000679
956.000000, 0.000786
957.000000, 0.000692
958.000000, 0.000667
959.000000, 0.000735
960.000000, 0.000579
961.000000, 0.000394
962.000000, 0.000581
963.000000, 0.000964
964.000000, 0.000997
965.000000, 0.000737
966.000000, 0.000497
967.000000, 0.000545
968.000000, 0.000692
969.000000, 0.000888
970.000000, 0.000707
971.000000, 0.000621
972.000000, 0.000686
973.000000, 0.000696
974.000000, 0.000675
975.000000, 0.000668
976.000000, 0.000665
977.000000, 0.000606
978.000000, 0.000577
979.000000, 0.000715
980.000000, 0.000913
981.000000, 0.000682
982.000000, 0.000615
983.000000, 0.000632
984.000000, 0.000653
985.000000, 0.000659
986.000000, 0.000702
987.000000, 0.000804
988.000000, 0.000712
989.000000, 0.000669
990.000000, 0.000675
991.000000, 0.000694
992.000000, 0.000665
993.000000, 0.000757
994.000000, 0.000781
995.000000, 0.000745
996.000000, 0.000758
997.000000, 0.000641
998.000000, 0.000426
999.000000, 0.000682
1000.000000, 0.000717
1001.000000, 0.000716
1002.000000, 0.000659
1003.000000, 0.000447
1004.000000, 0.000590
1005.000000, 0.000688
1006.000000, 0.000673
1007.000000, 0.000658
1008.000000, 0.000708
1009.000000, 0.000793
1010.000000, 0.000678
1011.000000, 0.000629
1012.000000, 0.000650
1013.000000, 0.000642
1014.000000, 0.000614
1015.000000, 0.000643
1016.000000, 0.000680
1017.000000, 0.000654
1018.000000, 0.000607
1019.000000, 0.000633
1020.000000, 0.000693
1021.000000, 0.000821
1022.000000, 0.000620
1023.000000, 0.000638
1024.000000, 0.000565
1025.000000, 0.000649
1026.000000, 0.000920
1027.000000, 0.000855
1028.000000, 0.000609
1029.000000, 0.000566
1030.000000, 0.000602
1031.000000, 0.000532
1032.000000, 0.000624
1033.000000, 0.000955
1034.000000, 0.000903
1035.000000, 0.000615
1036.000000, 0.000521
1037.000000, 0.000564
1038.000000, 0.000457
1039.000000, 0.000589
1040.000000, 0.000879
1041.000000, 0.000879
1042.000000, 0.000813
1043.000000, 0.000542
1044.000000, 0.000556
1045.000000, 0.000510
1046.000000, 0.000542
1047.000000, 0.000845
1048.000000, 0.000866
1049.000000, 0.000911
1050.000000, 0.000823
1051.000000, 0.000555
1052.000000, 0.000424
1053.000000, 0.000430
1054.000000, 0.000506
1055.000000, 0.000733
1056.000000, 0.000789
1057.000000, 0.000824
1058.000000, 0.000908
1059.000000, 0.000770
1060.000000, 0.000439
1061.000000, 0.000353
1062.000000, 0.000438
1063.000000, 0.000711
1064.000000, 0.000804
1065.000000, 0.000889
1066.000000, 0.000773
1067.000000, 0.000789
1068.000000, 0.000867
1069.000000, 0.000878
1070.000000, 0.000802
1071.000000, 0.000369
1072.000000, 0.000447
1073.000000, 0.000592
1074.000000, 0.000760
1075.000000, 0.000844
1076.000000, 0.000866
1077.000000, 0.000810
1078.000000, 0.000538
1079.000000, 0.000549
1080.000000, 0.000553
1081.000000, 0.000501
1082.000000, 0.000534
1083.000000, 0.000890
1084.000000, 0.000849
1085.000000, 0.000714
1086.000000, 0.000503
1087.000000, 0.000533
1088.000000, 0.000658
1089.000000, 0.000856
1090.000000, 0.000858
1091.000000, 0.000893
1092.000000, 0.000765
