# Wavelength  (nm), Transmission (%)
200.000000, 0.001380
201.000000, 0.001320
202.000000, 0.001670
203.000000, 0.002000
204.000000, 0.001850
205.000000, 0.007960
206.000000, 0.005450
207.000000, 0.000810
208.000000, 0.002940
209.000000, 0.001120
210.000000, 0.002940
211.000000, 0.006600
212.000000, 0.002240
213.000000, 0.005190
214.000000, 0.002240
215.000000, 0.000815
216.000000, 0.003060
217.000000, 0.002140
218.000000, 0.003470
219.000000, 0.000306
220.000000, 0.001120
221.000000, 0.001010
222.000000, 0.003790
223.000000, 0.002560
224.000000, 0.004400
225.000000, 0.000205
226.000000, 0.001130
227.000000, 0.004100
228.000000, 0.001640
229.000000, 0.000924
230.000000, 0.003490
231.000000, 0.000103
232.000000, 0.001030
233.000000, 0.003810
234.000000, 0.000310
235.000000, 0.000723
236.000000, 0.006200
237.000000, 0.000725
238.000000, 0.003520
239.000000, 0.003220
240.000000, 0.002910
241.000000, 0.003020
242.000000, 0.004480
243.000000, 0.000938
244.000000, 0.000835
245.000000, 0.000835
246.000000, 0.002300
247.000000, 0.000522
248.000000, 0.003870
249.000000, 0.001150
250.000000, 0.004180
251.000000, 0.002720
252.000000, 0.002040
253.000000, 0.002200
254.000000, 0.005330
255.000000, 0.000314
256.000000, 0.003870
257.000000, 0.004290
258.000000, 0.001150
259.000000, 0.003230
260.000000, 0.005650
261.000000, 0.000209
262.000000, 0.003350
263.000000, 0.003670
264.000000, 0.001680
265.000000, 0.007030
266.000000, 0.006090
267.000000, 0.002210
268.000000, 0.003790
269.000000, 0.006000
270.000000, 0.002000
271.000000, 0.004210
272.000000, 0.004530
273.000000, 0.002000
274.000000, 0.004860
275.000000, 0.005600
276.000000, 0.000528
277.000000, 0.001270
278.000000, 0.006130
279.000000, 0.000952
280.000000, 0.004550
281.000000, 0.004340
282.000000, 0.000741
283.000000, 0.003500
284.000000, 0.005510
285.000000, 0.001910
286.000000, 0.004880
287.000000, 0.004450
288.000000, 0.000743
289.000000, 0.000849
290.000000, 0.006900
291.000000, 0.000425
292.000000, 0.004250
293.000000, 0.003830
294.000000, 0.000425
295.000000, 0.002020
296.000000, 0.005540
297.000000, 0.001170
298.000000, 0.005440
299.000000, 0.005120
300.000000, 0.001390
301.000000, 0.000427
302.000000, 0.005340
303.000000, 0.000748
304.000000, 0.002980
305.000000, 0.003530
306.000000, 0.000107
307.000000, 0.004490
308.000000, 0.005890
309.000000, 0.001820
310.000000, 0.006430
311.000000, 0.004610
312.000000, 0.003840
313.000000, 0.000751
314.000000, 0.001500
315.000000, 0.003350
316.000000, 0.005050
317.000000, 0.006980
318.000000, 0.000537
319.000000, 0.005520
320.000000, 0.004760
321.000000, 0.001620
322.000000, 0.003250
323.000000, 0.003030
324.000000, 0.001620
325.000000, 0.003680
326.000000, 0.004760
327.000000, 0.002600
328.000000, 0.003030
329.000000, 0.003140
330.000000, 0.000757
331.000000, 0.003030
332.000000, 0.004220
333.000000, 0.002700
334.000000, 0.005190
335.000000, 0.001950
336.000000, 0.000973
337.000000, 0.005510
338.000000, 0.004320
339.000000, 0.004000
340.000000, 0.003460
341.000000, 0.003890
342.000000, 0.001300
343.000000, 0.004210
344.000000, 0.005830
345.000000, 0.002380
346.000000, 0.005180
347.000000, 0.004960
348.000000, 0.001730
349.000000, 0.005390
350.000000, 0.004640
351.000000, 0.002270
352.000000, 0.004750
353.000000, 0.003770
354.000000, 0.000970
355.000000, 0.003130
356.000000, 0.003450
357.000000, 0.003230
358.000000, 0.004090
359.000000, 0.002150
360.000000, 0.000215
361.000000, 0.003340
362.000000, 0.003020
363.000000, 0.002800
364.000000, 0.002910
365.000000, 0.000646
366.000000, 0.000646
367.000000, 0.002910
368.000000, 0.004520
369.000000, 0.003010
370.000000, 0.003010
371.000000, 0.000537
372.000000, 0.000107
373.000000, 0.002470
374.000000, 0.001830
375.000000, 0.002680
376.000000, 0.004930
377.000000, 0.002790
378.000000, 0.000859
379.000000, 0.005270
380.000000, 0.003440
381.000000, 0.001720
382.000000, 0.001610
383.000000, 0.001610
384.000000, 0.001180
385.000000, 0.003330
386.000000, 0.006010
387.000000, 0.003430
388.000000, 0.003220
389.000000, 0.003540
390.000000, 0.003540
391.000000, 0.001820
392.000000, 0.004180
393.000000, 0.001710
394.000000, 0.001820
395.000000, 0.002040
396.000000, 0.005780
397.000000, 0.003000
398.000000, 0.004390
399.000000, 0.001820
400.000000, 0.001180
401.000000, 0.003960
402.000000, 0.000428
403.000000, 0.000856
404.000000, 0.003640
405.000000, 0.001920
406.000000, 0.000748
407.000000, 0.005130
408.000000, 0.004590
409.000000, 0.001180
410.000000, 0.003310
411.000000, 0.001390
412.000000, 0.001390
413.000000, 0.003840
414.000000, 0.004690
415.000000, 0.002030
416.000000, 0.004370
417.000000, 0.003200
418.000000, 0.003730
419.000000, 0.004050
420.000000, 0.003410
421.000000, 0.000107
422.000000, 0.002660
423.000000, 0.002130
424.000000, 0.000532
425.000000, 0.001810
426.000000, 0.004580
427.000000, 0.001490
428.000000, 0.003620
429.000000, 0.002340
430.000000, 0.000532
431.000000, 0.003300
432.000000, 0.003400
433.000000, 0.001910
434.000000, 0.004780
435.000000, 0.002230
436.000000, 0.000849
437.000000, 0.003080
438.000000, 0.003930
439.000000, 0.001800
440.000000, 0.004030
441.000000, 0.003290
442.000000, 0.002840
443.000000, 0.003080
444.000000, 0.004030
445.000000, 0.002970
446.000000, 0.004340
447.000000, 0.001270
448.000000, 0.000636
449.000000, 0.001590
450.000000, 0.003070
451.000000, 0.001690
452.000000, 0.000635
453.000000, 0.002200
454.000000, 0.000318
455.000000, 0.002330
456.000000, 0.003170
457.000000, 0.002430
458.000000, 0.001380
459.000000, 0.001160
460.000000, 0.001900
461.000000, 0.004120
462.000000, 0.002640
463.000000, 0.002750
464.000000, 0.002010
465.000000, 0.001370
466.000000, 0.002640
467.000000, 0.003380
468.000000, 0.003910
469.000000, 0.003170
470.000000, 0.002530
471.000000, 0.000950
472.000000, 0.000845
473.000000, 0.003480
474.000000, 0.003690
475.000000, 0.002960
476.000000, 0.001370
477.000000, 0.000738
478.000000, 0.001790
479.000000, 0.003060
480.000000, 0.003580
481.000000, 0.002950
482.000000, 0.001370
483.000000, 0.000316
484.000000, 0.000737
485.000000, 0.003480
486.000000, 0.003480
487.000000, 0.002210
488.000000, 0.002110
489.000000, 0.000632
490.000000, 0.001050
491.000000, 0.003690
492.000000, 0.004000
493.000000, 0.003270
494.000000, 0.000738
495.000000, 0.000632
496.000000, 0.002210
497.000000, 0.004000
498.000000, 0.002950
499.000000, 0.003800
500.000000, 0.002850
501.000000, 0.000949
502.000000, 0.003270
503.000000, 0.005060
504.000000, 0.003480
505.000000, 0.002320
506.000000, 0.000633
507.000000, 0.000316
508.000000, 0.002530
509.000000, 0.004110
510.000000, 0.003160
511.000000, 0.002850
512.000000, 0.000738
513.000000, 0.000105
514.000000, 0.001370
515.000000, 0.004210
516.000000, 0.002210
517.000000, 0.000948
518.000000, 0.000632
519.000000, 0.001610
520.000000, 0.000105
521.000000, 0.002840
522.000000, 0.001470
523.000000, 0.001470
524.000000, 0.000421
525.000000, 0.000421
526.000000, 0.002840
527.000000, 0.004730
528.000000, 0.001580
529.000000, 0.000631
530.000000, 0.000105
531.000000, 0.000105
532.000000, 0.003150
533.000000, 0.005360
534.000000, 0.001580
535.000000, 0.000736
536.000000, 0.001860
537.000000, 0.000420
538.000000, 0.000525
539.000000, 0.003680
540.000000, 0.002100
541.000000, 0.000946
542.000000, 0.000210
543.000000, 0.000210
544.000000, 0.001890
545.000000, 0.004830
546.000000, 0.000630
547.000000, 0.002000
548.000000, 0.000945
549.000000, 0.000840
550.000000, 0.000420
551.000000, 0.003670
552.000000, 0.001470
553.000000, 0.000315
554.000000, 0.001580
555.000000, 0.000735
556.000000, 0.001160
557.000000, 0.003990
558.000000, 0.001160
559.000000, 0.000315
560.000000, 0.002310
561.000000, 0.001360
562.000000, 0.000105
563.000000, 0.000840
564.000000, 0.004090
565.000000, 0.005460
566.000000, 0.001050
567.000000, 0.000630
568.000000, 0.000315
569.000000, 0.000105
570.000000, 0.000525
571.000000, 0.003360
572.000000, 0.000210
573.000000, 0.000210
574.000000, 0.001680
575.000000, 0.000525
576.000000, 0.002200
577.000000, 0.004300
578.000000, 0.000420
579.000000, 0.001160
580.000000, 0.000420
581.000000, 0.000420
582.000000, 0.002520
583.000000, 0.004830
584.000000, 0.001360
585.000000, 0.002940
586.000000, 0.004090
587.000000, 0.001150
588.000000, 0.002940
589.000000, 0.003880
590.000000, 0.001470
591.000000, 0.002520
592.000000, 0.005350
593.000000, 0.001470
594.000000, 0.002730
595.000000, 0.004720
596.000000, 0.002100
597.000000, 0.002620
598.000000, 0.002730
599.000000, 0.000419
600.000000, 0.002520
601.000000, 0.002940
602.000000, 0.000524
603.000000, 0.002830
604.000000, 0.004300
605.000000, 0.000105
606.000000, 0.003150
607.000000, 0.003670
608.000000, 0.000105
609.000000, 0.000944
610.000000, 0.003670
611.000000, 0.002730
612.000000, 0.004300
613.000000, 0.005980
614.000000, 0.001990
615.000000, 0.001360
616.000000, 0.003460
617.000000, 0.000838
618.000000, 0.004300
619.000000, 0.002100
620.000000, 0.002520
621.000000, 0.001470
622.000000, 0.003140
623.000000, 0.000419
624.000000, 0.002930
625.000000, 0.004190
626.000000, 0.001360
627.000000, 0.002620
628.000000, 0.002830
629.000000, 0.000733
630.000000, 0.000733
631.000000, 0.004500
632.000000, 0.001050
633.000000, 0.000524
634.000000, 0.001780
635.000000, 0.001780
636.000000, 0.002720
637.000000, 0.005970
638.000000, 0.000942
639.000000, 0.001780
640.000000, 0.004080
641.000000, 0.000942
642.000000, 0.000419
643.000000, 0.004080
644.000000, 0.001680
645.000000, 0.000523
646.000000, 0.004080
647.000000, 0.002090
648.000000, 0.004080
649.000000, 0.006590
650.000000, 0.003650
651.000000, 0.001990
652.000000, 0.005120
653.000000, 0.000627
654.000000, 0.000314
655.000000, 0.005020
656.000000, 0.000105
657.000000, 0.000418
658.000000, 0.000627
659.000000, 0.000313
660.000000, 0.000418
661.000000, 0.004910
662.000000, 0.000627
663.000000, 0.003660
664.000000, 0.004600
665.000000, 0.002400
666.000000, 0.000522
667.000000, 0.001460
668.000000, 0.001250
669.000000, 0.002500
670.000000, 0.000522
671.000000, 0.001360
672.000000, 0.000313
673.000000, 0.005430
674.000000, 0.000730
675.000000, 0.003230
676.000000, 0.003960
677.000000, 0.001150
678.000000, 0.000313
679.000000, 0.004270
680.000000, 0.001040
681.000000, 0.001670
682.000000, 0.001770
683.000000, 0.000834
684.000000, 0.001460
685.000000, 0.002190
686.000000, 0.001670
687.000000, 0.000312
688.000000, 0.002600
689.000000, 0.000937
690.000000, 0.001350
691.000000, 0.004790
692.000000, 0.000104
693.000000, 0.004580
694.000000, 0.005510
695.000000, 0.000416
696.000000, 0.000936
697.000000, 0.004370
698.000000, 0.001660
699.000000, 0.002600
700.000000, 0.003640
701.000000, 0.000727
702.000000, 0.003120
703.000000, 0.004260
704.000000, 0.000624
705.000000, 0.004780
706.000000, 0.004880
707.000000, 0.000727
708.000000, 0.001250
709.000000, 0.000934
710.000000, 0.000208
711.000000, 0.004980
712.000000, 0.004560
713.000000, 0.001140
714.000000, 0.002390
715.000000, 0.007160
716.000000, 0.000830
717.000000, 0.000519
718.000000, 0.003630
719.000000, 0.001140
720.000000, 0.002490
721.000000, 0.006110
722.000000, 0.002180
723.000000, 0.001660
724.000000, 0.004970
725.000000, 0.001450
726.000000, 0.001240
727.000000, 0.005070
728.000000, 0.001550
729.000000, 0.001970
730.000000, 0.003830
731.000000, 0.000931
732.000000, 0.000724
733.000000, 0.006100
734.000000, 0.000827
735.000000, 0.004650
736.000000, 0.004850
737.000000, 0.000103
738.000000, 0.002370
739.000000, 0.005470
740.000000, 0.000207
741.000000, 0.004030
742.000000, 0.003410
743.000000, 0.002070
744.000000, 0.001340
745.000000, 0.006290
746.000000, 0.000825
747.000000, 0.002990
748.000000, 0.002890
749.000000, 0.001240
750.000000, 0.002890
751.000000, 0.003810
752.000000, 0.002270
753.000000, 0.006690
754.000000, 0.004020
755.000000, 0.000103
756.000000, 0.000206
757.000000, 0.003190
758.000000, 0.000309
759.000000, 0.001950
760.000000, 0.002160
761.000000, 0.000206
762.000000, 0.001850
763.000000, 0.003700
764.000000, 0.001340
765.000000, 0.002060
766.000000, 0.003180
767.000000, 0.000205
768.000000, 0.001540
769.000000, 0.004620
770.000000, 0.000821
771.000000, 0.004510
772.000000, 0.003790
773.000000, 0.002050
774.000000, 0.003590
775.000000, 0.004300
776.000000, 0.001950
777.000000, 0.004410
778.000000, 0.002660
779.000000, 0.000307
780.000000, 0.002560
781.000000, 0.004400
782.000000, 0.000716
783.000000, 0.004200
784.000000, 0.002660
785.000000, 0.000716
786.000000, 0.002870
787.000000, 0.004090
788.000000, 0.001120
789.000000, 0.002040
790.000000, 0.000613
791.000000, 0.000408
792.000000, 0.001020
793.000000, 0.005310
794.000000, 0.001530
795.000000, 0.002450
796.000000, 0.001940
797.000000, 0.000408
798.000000, 0.000204
799.000000, 0.003060
800.000000, 0.001840
801.000000, 0.002850
802.000000, 0.000102
803.000000, 0.000408
804.000000, 0.000102
805.000000, 0.002750
806.000000, 0.001940
807.000000, 0.002340
808.000000, 0.000407
809.000000, 0.001730
810.000000, 0.003260
811.000000, 0.000916
812.000000, 0.000407
813.000000, 0.000712
814.000000, 0.003260
815.000000, 0.001530
816.000000, 0.001220
817.000000, 0.000712
818.000000, 0.002030
819.000000, 0.002440
820.000000, 0.001930
821.000000, 0.000305
822.000000, 0.003160
823.000000, 0.000814
824.000000, 0.001120
825.000000, 0.001120
826.000000, 0.004070
827.000000, 0.000917
828.000000, 0.003570
829.000000, 0.000102
830.000000, 0.001120
831.000000, 0.003670
832.000000, 0.001530
833.000000, 0.001020
834.000000, 0.004800
835.000000, 0.004290
836.000000, 0.000920
837.000000, 0.002040
838.000000, 0.002250
839.000000, 0.002050
840.000000, 0.005430
841.000000, 0.001430
842.000000, 0.000102
843.000000, 0.002460
844.000000, 0.002770
845.000000, 0.003180
846.000000, 0.003390
847.000000, 0.002060
848.000000, 0.002160
849.000000, 0.004010
850.000000, 0.003190
851.000000, 0.002780
852.000000, 0.004940
853.000000, 0.002990
854.000000, 0.000618
855.000000, 0.001030
856.000000, 0.001960
857.000000, 0.003300
858.000000, 0.003810
859.000000, 0.002060
860.000000, 0.004020
861.000000, 0.003220
862.000000, 0.004030
863.000000, 0.002770
864.000000, 0.006900
865.000000, 0.003430
866.000000, 0.003380
867.000000, 0.008220
868.000000, 0.005350
869.000000, 0.003430
870.000000, 0.008550
871.000000, 0.002410
872.000000, 0.002780
873.000000, 0.006860
874.000000, 0.007760
875.000000, 0.000809
876.000000, 0.009880
877.000000, 0.007070
878.000000, 0.000545
879.000000, 0.002760
880.000000, 0.004410
881.000000, 0.003240
882.000000, 0.001830
883.000000, 0.001720
884.000000, 0.000991
885.000000, 0.001140
886.000000, 0.003400
887.000000, 0.001740
888.000000, 0.001470
889.000000, 0.000562
890.000000, 0.001040
891.000000, 0.001170
892.000000, 0.002550
893.000000, 0.004860
894.000000, 0.006960
895.000000, 0.006120
896.000000, 0.000397
897.000000, 0.006000
898.000000, 0.005900
899.000000, 0.000661
900.000000, 0.005950
901.000000, 0.006530
902.000000, 0.003660
903.000000, 0.003440
904.000000, 0.005920
905.000000, 0.000265
906.000000, 0.004730
907.000000, 0.003190
908.000000, 0.001820
909.000000, 0.000596
910.000000, 0.001870
911.000000, 0.002070
912.000000, 0.003410
913.000000, 0.004820
914.000000, 0.001160
915.000000, 0.005450
916.000000, 0.003730
917.000000, 0.003150
918.000000, 0.004390
919.000000, 0.000331
920.000000, 0.001690
921.000000, 0.001110
922.000000, 0.000580
923.000000, 0.003940
924.000000, 0.000033
925.000000, 0.001670
926.000000, 0.005220
927.000000, 0.003660
928.000000, 0.001530
929.000000, 0.000365
930.000000, 0.002650
931.000000, 0.001780
932.000000, 0.003240
933.000000, 0.001970
934.000000, 0.000912
935.000000, 0.001380
936.000000, 0.003470
937.000000, 0.000183
938.000000, 0.003800
939.000000, 0.000481
940.000000, 0.006690
941.000000, 0.003640
942.000000, 0.000681
943.000000, 0.001390
944.000000, 0.003500
945.000000, 0.003270
946.000000, 0.002690
947.000000, 0.001330
948.000000, 0.000581
949.000000, 0.004680
950.000000, 0.000764
951.000000, 0.009300
952.000000, 0.004930
953.000000, 0.005870
954.000000, 0.007740
955.000000, 0.000714
956.000000, 0.007700
957.000000, 0.003950
958.000000, 0.003590
959.000000, 0.002040
960.000000, 0.002720
961.000000, 0.004100
962.000000, 0.006230
963.000000, 0.000249
964.000000, 0.004020
965.000000, 0.004750
966.000000, 0.002560
967.000000, 0.005580
968.000000, 0.008090
969.000000, 0.000449
970.000000, 0.007660
971.000000, 0.003990
972.000000, 0.000848
973.000000, 0.003990
974.000000, 0.000432
975.000000, 0.001080
976.000000, 0.000548
977.000000, 0.003770
978.000000, 0.000981
979.000000, 0.003660
980.000000, 0.002540
981.000000, 0.003090
982.000000, 0.000848
983.000000, 0.002310
984.000000, 0.000050
985.000000, 0.004190
986.000000, 0.001350
987.000000, 0.005620
988.000000, 0.001150
989.000000, 0.006480
990.000000, 0.006980
991.000000, 0.000249
992.000000, 0.002010
993.000000, 0.000199
994.000000, 0.002990
995.000000, 0.000266
996.000000, 0.002060
997.000000, 0.001260
998.000000, 0.000432
999.000000, 0.004470
1000.000000, 0.000249
1001.000000, 0.002460
1002.000000, 0.003870
1003.000000, 0.001330
1004.000000, 0.007300
1005.000000, 0.003440
1006.000000, 0.001780
1007.000000, 0.001650
1008.000000, 0.001430
1009.000000, 0.009230
1010.000000, 0.001540
1011.000000, 0.001660
1012.000000, 0.000233
1013.000000, 0.000498
1014.000000, 0.000897
1015.000000, 0.000033
1016.000000, 0.001450
1017.000000, 0.000199
1018.000000, 0.002510
1019.000000, 0.002440
1020.000000, 0.000980
1021.000000, 0.004930
1022.000000, 0.000581
1023.000000, 0.000830
1024.000000, 0.002640
1025.000000, 0.002420
1026.000000, 0.000680
1027.000000, 0.004830
1028.000000, 0.000349
1029.000000, 0.001930
1030.000000, 0.000199
1031.000000, 0.001940
1032.000000, 0.000033
1033.000000, 0.005410
1034.000000, 0.001580
1035.000000, 0.002390
1036.000000, 0.002110
1037.000000, 0.000813
1038.000000, 0.000714
1039.000000, 0.007780
1040.000000, 0.006580
1041.000000, 0.002690
1042.000000, 0.001940
1043.000000, 0.003120
1044.000000, 0.002570
1045.000000, 0.000664
1046.000000, 0.008410
1047.000000, 0.006690
1048.000000, 0.000946
1049.000000, 0.004610
1050.000000, 0.004220
1051.000000, 0.003720
1052.000000, 0.000481
1053.000000, 0.007300
1054.000000, 0.007020
1055.000000, 0.000033
1056.000000, 0.000116
1057.000000, 0.002700
1058.000000, 0.000813
1059.000000, 0.000149
1060.000000, 0.001340
1061.000000, 0.001580
1062.000000, 0.009010
1063.000000, 0.000481
1064.000000, 0.000216
1065.000000, 0.001790
1066.000000, 0.002500
1067.000000, 0.004530
1068.000000, 0.001990
1069.000000, 0.002650
1070.000000, 0.006080
1071.000000, 0.003870
1072.000000, 0.008180
1073.000000, 0.007010
1074.000000, 0.038140
1075.000000, 0.044240
1076.000000, 0.023110
1077.000000, 0.056820
1078.000000, 0.071510
1079.000000, 0.086230
1080.000000, 0.180720
1081.000000, 0.206460
1082.000000, 0.200350
1083.000000, 0.216260
1084.000000, 0.280870
1085.000000, 0.363060
1086.000000, 0.474190
1087.000000, 0.698770
1088.000000, 0.907060
1089.000000, 1.125960
1090.000000, 1.474550
1091.000000, 2.024110
1092.000000, 2.753780
1093.000000, 4.043110
1094.000000, 5.719650
1095.000000, 8.288720
1096.000000, 12.255110
1097.000000, 18.092970
1098.000000, 26.040400
1099.000000, 38.433360
1100.000000, 52.220330
1101.000000, 66.535200
