# Wavelength  (nm), Transmission (%)
200.000000, 0.001664
201.000000, 0.001652
202.000000, 0.001585
203.000000, 0.001567
204.000000, 0.001539
205.000000, 0.001493
206.000000, 0.001427
207.000000, 0.001440
208.000000, 0.001383
209.000000, 0.001343
210.000000, 0.001331
211.000000, 0.001296
212.000000, 0.001274
213.000000, 0.001277
214.000000, 0.001275
215.000000, 0.001287
216.000000, 0.001283
217.000000, 0.001303
218.000000, 0.001346
219.000000, 0.001341
220.000000, 0.001390
221.000000, 0.001410
222.000000, 0.001447
223.000000, 0.001493
224.000000, 0.001529
225.000000, 0.001542
226.000000, 0.001609
227.000000, 0.001613
228.000000, 0.001660
229.000000, 0.001681
230.000000, 0.001669
231.000000, 0.001700
232.000000, 0.001673
233.000000, 0.001682
234.000000, 0.001676
235.000000, 0.001656
236.000000, 0.001649
237.000000, 0.001627
238.000000, 0.001575
239.000000, 0.001549
240.000000, 0.001547
241.000000, 0.001485
242.000000, 0.001459
243.000000, 0.001420
244.000000, 0.001377
245.000000, 0.001351
246.000000, 0.001306
247.000000, 0.001255
248.000000, 0.001239
249.000000, 0.001205
250.000000, 0.001174
251.000000, 0.001139
252.000000, 0.001102
253.000000, 0.001065
254.000000, 0.001052
255.000000, 0.001034
256.000000, 0.001019
257.000000, 0.000983
258.000000, 0.000985
259.000000, 0.000975
260.000000, 0.000932
261.000000, 0.000939
262.000000, 0.000931
263.000000, 0.000930
264.000000, 0.000925
265.000000, 0.000906
266.000000, 0.000911
267.000000, 0.000915
268.000000, 0.000911
269.000000, 0.000898
270.000000, 0.000909
271.000000, 0.000915
272.000000, 0.000963
273.000000, 0.000949
274.000000, 0.000958
275.000000, 0.000949
276.000000, 0.000985
277.000000, 0.000979
278.000000, 0.001002
279.000000, 0.001021
280.000000, 0.001057
281.000000, 0.001045
282.000000, 0.001068
283.000000, 0.001082
284.000000, 0.001112
285.000000, 0.001085
286.000000, 0.001094
287.000000, 0.001115
288.000000, 0.001116
289.000000, 0.001136
290.000000, 0.001109
291.000000, 0.001098
292.000000, 0.001077
293.000000, 0.001067
294.000000, 0.001078
295.000000, 0.001043
296.000000, 0.001028
297.000000, 0.000965
298.000000, 0.000948
299.000000, 0.000915
300.000000, 0.000856
301.000000, 0.000852
302.000000, 0.000767
303.000000, 0.000744
304.000000, 0.000765
305.000000, 0.000698
306.000000, 0.000645
307.000000, 0.000599
308.000000, 0.000553
309.000000, 0.000538
310.000000, 0.000467
311.000000, 0.000445
312.000000, 0.000388
313.000000, 0.000378
314.000000, 0.000331
315.000000, 0.000301
316.000000, 0.000278
317.000000, 0.000245
318.000000, 0.000221
319.000000, 0.000216
320.000000, 0.000201
321.000000, 0.000167
322.000000, 0.000167
323.000000, 0.000142
324.000000, 0.000136
325.000000, 0.000127
326.000000, 0.000110
327.000000, 0.000107
328.000000, 0.000091
329.000000, 0.000101
330.000000, 0.000077
331.000000, 0.000076
332.000000, 0.000088
333.000000, 0.000082
334.000000, 0.000069
335.000000, 0.000091
336.000000, 0.000092
337.000000, 0.000088
338.000000, 0.000136
339.000000, 0.000166
340.000000, 0.000187
341.000000, 0.000233
342.000000, 0.000310
343.000000, 0.000418
344.000000, 0.000556
345.000000, 0.000754
346.000000, 0.001096
347.000000, 0.001546
348.000000, 0.002227
349.000000, 0.003032
350.000000, 0.004758
351.000000, 0.006825
352.000000, 0.009998
353.000000, 0.014397
354.000000, 0.020868
355.000000, 0.030030
356.000000, 0.043138
357.000000, 0.061764
358.000000, 0.088030
359.000000, 0.125166
360.000000, 0.177160
361.000000, 0.247242
362.000000, 0.340865
363.000000, 0.467552
364.000000, 0.634987
365.000000, 0.851851
366.000000, 1.128886
367.000000, 1.479069
368.000000, 1.913954
369.000000, 2.452838
370.000000, 3.104663
371.000000, 3.900600
372.000000, 4.821507
373.000000, 5.881944
374.000000, 7.099992
375.000000, 8.492528
376.000000, 10.111613
377.000000, 11.879741
378.000000, 13.765753
379.000000, 15.746695
380.000000, 17.752327
381.000000, 19.842319
382.000000, 22.116142
383.000000, 24.574795
384.000000, 27.188074
385.000000, 29.809608
386.000000, 32.253994
387.000000, 34.632118
388.000000, 36.925999
389.000000, 39.264957
390.000000, 41.682167
391.000000, 44.090958
392.000000, 46.383202
393.000000, 48.392277
394.000000, 50.110924
395.000000, 51.686604
396.000000, 53.159081
397.000000, 54.702114
398.000000, 56.319660
399.000000, 58.054935
400.000000, 59.903538
401.000000, 61.690117
402.000000, 63.363846
403.000000, 64.905182
404.000000, 66.201103
405.000000, 67.186295
406.000000, 67.982307
407.000000, 68.727364
408.000000, 69.455673
409.000000, 70.357895
410.000000, 71.279541
411.000000, 72.242622
412.000000, 73.010399
413.000000, 73.603508
414.000000, 73.922195
415.000000, 74.084991
416.000000, 74.232841
417.000000, 74.442673
418.000000, 74.752533
419.000000, 75.158920
420.000000, 75.445656
421.000000, 75.633553
422.000000, 75.807144
423.000000, 75.958466
424.000000, 76.248367
425.000000, 76.783981
426.000000, 77.451256
427.000000, 78.175629
428.000000, 78.642990
429.000000, 78.811821
430.000000, 78.591248
431.000000, 78.126350
432.000000, 77.664803
433.000000, 77.408890
434.000000, 77.446144
435.000000, 77.654663
436.000000, 77.914268
437.000000, 78.093025
438.000000, 78.156212
439.000000, 78.182030
440.000000, 78.153404
441.000000, 77.998611
442.000000, 77.518974
443.000000, 76.598679
444.000000, 75.406563
445.000000, 74.469070
446.000000, 73.833038
447.000000, 71.219612
448.000000, 61.688000
449.000000, 43.824776
450.000000, 24.070309
451.000000, 8.685493
452.000000, 3.947120
453.000000, 1.459159
454.000000, 0.556252
455.000000, 0.220618
456.000000, 0.092047
457.000000, 0.040858
458.000000, 0.018924
459.000000, 0.009360
460.000000, 0.004943
461.000000, 0.002776
462.000000, 0.001697
463.000000, 0.001105
464.000000, 0.000759
465.000000, 0.000561
466.000000, 0.000436
467.000000, 0.000356
468.000000, 0.000299
469.000000, 0.000256
470.000000, 0.000226
471.000000, 0.000198
472.000000, 0.000189
473.000000, 0.000170
474.000000, 0.000157
475.000000, 0.000136
476.000000, 0.000131
477.000000, 0.000126
478.000000, 0.000109
479.000000, 0.000102
480.000000, 0.000100
481.000000, 0.000092
482.000000, 0.000085
483.000000, 0.000085
484.000000, 0.000080
485.000000, 0.000077
486.000000, 0.000075
487.000000, 0.000070
488.000000, 0.000075
489.000000, 0.000065
490.000000, 0.000065
491.000000, 0.000059
492.000000, 0.000059
493.000000, 0.000058
494.000000, 0.000058
495.000000, 0.000052
496.000000, 0.000045
497.000000, 0.000041
498.000000, 0.000048
499.000000, 0.000044
500.000000, 0.000039
501.000000, 0.000036
502.000000, 0.000041
503.000000, 0.000036
504.000000, 0.000035
505.000000, 0.000032
506.000000, 0.000029
507.000000, 0.000032
508.000000, 0.000034
509.000000, 0.000033
510.000000, 0.000032
511.000000, 0.000034
512.000000, 0.000026
513.000000, 0.000031
514.000000, 0.000029
515.000000, 0.000027
516.000000, 0.000021
517.000000, 0.000024
518.000000, 0.000025
519.000000, 0.000027
520.000000, 0.000022
521.000000, 0.000021
522.000000, 0.000021
523.000000, 0.000024
524.000000, 0.000024
525.000000, 0.000022
526.000000, 0.000017
527.000000, 0.000022
528.000000, 0.000018
529.000000, 0.000034
530.000000, 0.000022
531.000000, 0.000017
532.000000, 0.000022
533.000000, 0.000018
534.000000, 0.000021
535.000000, 0.000016
536.000000, 0.000016
537.000000, 0.000013
538.000000, 0.000018
539.000000, 0.000018
540.000000, 0.000019
541.000000, 0.000018
542.000000, 0.000014
543.000000, 0.000029
544.000000, 0.000017
545.000000, 0.000024
546.000000, 0.000010
547.000000, 0.000009
548.000000, 0.000017
549.000000, 0.000022
550.000000, 0.000013
551.000000, 0.000013
552.000000, 0.000016
553.000000, 0.000016
554.000000, 0.000013
555.000000, 0.000010
556.000000, 0.000017
557.000000, 0.000011
558.000000, 0.000016
559.000000, 0.000010
560.000000, 0.000009
561.000000, 0.000020
562.000000, 0.000013
563.000000, 0.000015
564.000000, 0.000010
565.000000, 0.000013
566.000000, 0.000017
567.000000, 0.000010
568.000000, 0.000023
569.000000, 0.000009
570.000000, 0.000013
571.000000, 0.000012
572.000000, 0.000003
573.000000, 0.000008
574.000000, 0.000018
575.000000, 0.000009
576.000000, 0.000010
577.000000, 0.000012
578.000000, -0.000000
579.000000, 0.000017
580.000000, 0.000017
581.000000, 0.000014
582.000000, 0.000018
583.000000, 0.000004
584.000000, 0.000015
585.000000, 0.000008
586.000000, 0.000016
587.000000, 0.000009
588.000000, 0.000019
589.000000, 0.000014
590.000000, 0.000003
591.000000, 0.000008
592.000000, 0.000005
593.000000, 0.000009
594.000000, 0.000013
595.000000, 0.000005
596.000000, 0.000017
597.000000, 0.000003
598.000000, 0.000018
599.000000, 0.000015
600.000000, 0.000004
601.000000, 0.000012
602.000000, 0.000014
603.000000, 0.000014
604.000000, 0.000011
605.000000, 0.000019
606.000000, 0.000018
607.000000, 0.000010
608.000000, 0.000020
609.000000, 0.000021
610.000000, 0.000019
611.000000, 0.000018
612.000000, 0.000028
613.000000, 0.000032
614.000000, 0.000025
615.000000, 0.000031
616.000000, 0.000033
617.000000, 0.000039
618.000000, 0.000053
619.000000, 0.000072
620.000000, 0.000078
621.000000, 0.000098
622.000000, 0.000129
623.000000, 0.000186
624.000000, 0.000249
625.000000, 0.000364
626.000000, 0.000525
627.000000, 0.000784
628.000000, 0.001229
629.000000, 0.001976
630.000000, 0.003327
631.000000, 0.005919
632.000000, 0.011421
633.000000, 0.025202
634.000000, 0.070477
635.000000, 0.435260
636.000000, 3.380970
637.000000, 7.014865
638.000000, 5.522109
639.000000, 1.807478
640.000000, 0.443600
641.000000, 0.302597
642.000000, 0.267579
643.000000, 0.271480
644.000000, 0.304667
645.000000, 0.371200
646.000000, 0.491328
647.000000, 0.708191
648.000000, 1.150686
649.000000, 2.208701
650.000000, 5.721827
651.000000, 18.378214
652.000000, 36.225517
653.000000, 37.336842
654.000000, 18.249784
655.000000, 8.223516
656.000000, 4.390510
657.000000, 3.071682
658.000000, 2.484052
659.000000, 2.207706
660.000000, 2.111824
661.000000, 2.143999
662.000000, 2.295253
663.000000, 2.592371
664.000000, 3.079551
665.000000, 3.863657
666.000000, 5.183439
667.000000, 7.489578
668.000000, 11.854905
669.000000, 20.708696
670.000000, 36.557785
671.000000, 54.153030
672.000000, 58.533352
673.000000, 45.599522
674.000000, 28.726370
675.000000, 17.866194
676.000000, 12.178203
677.000000, 9.118090
678.000000, 7.359943
679.000000, 6.284770
680.000000, 5.635688
681.000000, 5.247046
682.000000, 5.066826
683.000000, 5.051847
684.000000, 5.189958
685.000000, 5.489972
686.000000, 5.988287
687.000000, 6.729668
688.000000, 7.786886
689.000000, 9.307734
690.000000, 11.523529
691.000000, 14.762415
692.000000, 19.734499
693.000000, 27.229050
694.000000, 38.220848
695.000000, 52.169186
696.000000, 64.585495
697.000000, 68.930107
698.000000, 62.462227
699.000000, 50.089199
700.000000, 37.986683
701.000000, 28.851913
702.000000, 22.462782
703.000000, 18.166656
704.000000, 15.265022
705.000000, 13.235582
706.000000, 11.824220
707.000000, 10.839322
708.000000, 10.196434
709.000000, 9.809124
710.000000, 9.633348
711.000000, 9.644241
712.000000, 9.840085
713.000000, 10.224412
714.000000, 10.815196
715.000000, 11.652902
716.000000, 12.786393
717.000000, 14.288727
718.000000, 16.274715
719.000000, 18.902441
720.000000, 22.395872
721.000000, 27.020437
722.000000, 32.968876
723.000000, 40.485901
724.000000, 49.658199
725.000000, 59.642075
726.000000, 68.233910
727.000000, 73.124023
728.000000, 72.688225
729.000000, 67.272118
730.000000, 59.034252
731.000000, 50.396336
732.000000, 42.674889
733.000000, 36.258614
734.000000, 31.203110
735.000000, 27.267397
736.000000, 24.266052
737.000000, 21.935190
738.000000, 20.158466
739.000000, 18.836027
740.000000, 17.873222
741.000000, 17.190342
742.000000, 16.773321
743.000000, 16.572514
744.000000, 16.601044
745.000000, 16.834661
746.000000, 17.269995
747.000000, 17.950449
748.000000, 18.859600
749.000000, 20.076603
750.000000, 21.604391
751.000000, 23.520664
752.000000, 25.883780
753.000000, 28.782118
754.000000, 32.305710
755.000000, 36.531219
756.000000, 41.570362
757.000000, 47.428902
758.000000, 53.821651
759.000000, 60.637867
760.000000, 67.180908
761.000000, 72.670044
762.000000, 76.085869
763.000000, 76.907478
764.000000, 75.114212
765.000000, 71.200630
766.000000, 65.900940
767.000000, 60.079472
768.000000, 54.287796
769.000000, 48.878822
770.000000, 44.109150
771.000000, 40.092407
772.000000, 36.685574
773.000000, 33.794514
774.000000, 31.466972
775.000000, 29.592430
776.000000, 28.094192
777.000000, 26.919165
778.000000, 26.013327
779.000000, 25.398531
780.000000, 24.991035
781.000000, 24.807926
782.000000, 24.818571
783.000000, 25.047073
784.000000, 25.513252
785.000000, 26.171455
786.000000, 27.045866
787.000000, 28.150654
788.000000, 29.528687
789.000000, 31.225267
790.000000, 33.268696
791.000000, 35.596943
792.000000, 38.419430
793.000000, 41.692440
794.000000, 45.332630
795.000000, 49.489780
796.000000, 54.048412
797.000000, 59.027416
798.000000, 64.227661
799.000000, 69.329102
800.000000, 70.775810
801.000000, 73.026955
802.000000, 74.639130
803.000000, 75.561432
804.000000, 75.447426
805.000000, 74.451553
806.000000, 72.823425
807.000000, 70.347168
808.000000, 67.538612
809.000000, 64.432930
810.000000, 61.286400
811.000000, 57.945412
812.000000, 54.726009
813.000000, 51.753967
814.000000, 49.042179
815.000000, 46.506264
816.000000, 44.233761
817.000000, 42.160789
818.000000, 40.338982
819.000000, 38.884754
820.000000, 37.582294
821.000000, 36.552319
822.000000, 35.810669
823.000000, 35.185806
824.000000, 34.801178
825.000000, 34.637135
826.000000, 34.595367
827.000000, 34.778614
828.000000, 35.132973
829.000000, 35.678024
830.000000, 36.469238
831.000000, 37.438614
832.000000, 38.526978
833.000000, 39.882805
834.000000, 41.395203
835.000000, 43.119408
836.000000, 45.077038
837.000000, 47.314850
838.000000, 49.629753
839.000000, 52.170212
840.000000, 54.921658
841.000000, 57.771664
842.000000, 60.823257
843.000000, 64.034203
844.000000, 67.035194
845.000000, 70.078316
846.000000, 72.950592
847.000000, 75.478966
848.000000, 77.595856
849.000000, 79.304771
850.000000, 80.451698
851.000000, 80.976440
852.000000, 80.878677
853.000000, 80.007889
854.000000, 78.795532
855.000000, 77.050568
856.000000, 74.842209
857.000000, 72.495689
858.000000, 69.966248
859.000000, 67.347755
860.000000, 64.794525
861.000000, 62.286072
862.000000, 59.773903
863.000000, 57.467216
864.000000, 55.402328
865.000000, 53.424965
866.000000, 51.715374
867.000000, 50.214432
868.000000, 48.766457
869.000000, 47.550972
870.000000, 46.555252
871.000000, 45.680603
872.000000, 45.034081
873.000000, 44.540508
874.000000, 44.215782
875.000000, 43.980469
876.000000, 43.931633
877.000000, 43.987141
878.000000, 44.274635
879.000000, 44.608879
880.000000, 45.171326
881.000000, 45.899662
882.000000, 46.683384
883.000000, 47.704571
884.000000, 48.745373
885.000000, 50.102943
886.000000, 51.441322
887.000000, 53.065830
888.000000, 54.825562
889.000000, 56.660473
890.000000, 58.690899
891.000000, 60.841560
892.000000, 63.066639
893.000000, 65.401489
894.000000, 67.836639
895.000000, 70.347870
896.000000, 72.802742
897.000000, 75.272438
898.000000, 77.450188
899.000000, 79.654915
900.000000, 81.608887
901.000000, 83.289429
902.000000, 84.527794
903.000000, 85.479546
904.000000, 86.132721
905.000000, 86.238449
906.000000, 86.018486
907.000000, 85.552925
908.000000, 84.712967
909.000000, 83.470840
910.000000, 81.983528
911.000000, 80.288658
912.000000, 78.517212
913.000000, 76.422211
914.000000, 74.384659
915.000000, 72.349892
916.000000, 70.358322
917.000000, 68.337097
918.000000, 66.423515
919.000000, 64.482681
920.000000, 62.673222
921.000000, 61.052620
922.000000, 59.595512
923.000000, 58.201313
924.000000, 57.076180
925.000000, 55.877556
926.000000, 54.903515
927.000000, 54.046177
928.000000, 53.284740
929.000000, 52.675182
930.000000, 52.151714
931.000000, 51.741386
932.000000, 51.434891
933.000000, 51.291447
934.000000, 51.258308
935.000000, 51.247215
936.000000, 51.405537
937.000000, 51.620300
938.000000, 51.962322
939.000000, 52.429485
940.000000, 52.962273
941.000000, 53.572483
942.000000, 54.373436
943.000000, 55.179684
944.000000, 56.160324
945.000000, 57.278328
946.000000, 58.460270
947.000000, 59.706028
948.000000, 61.166656
949.000000, 62.490273
950.000000, 63.989277
951.000000, 65.611702
952.000000, 67.309799
953.000000, 68.948921
954.000000, 70.710121
955.000000, 72.537148
956.000000, 74.186752
957.000000, 76.007759
958.000000, 77.756523
959.000000, 79.400192
960.000000, 81.033638
961.000000, 82.535751
962.000000, 83.993134
963.000000, 85.165375
964.000000, 86.252472
965.000000, 87.061821
966.000000, 87.790367
967.000000, 88.254326
968.000000, 88.386887
969.000000, 88.418159
970.000000, 88.344032
971.000000, 87.879974
972.000000, 87.214592
973.000000, 86.602432
974.000000, 85.705788
975.000000, 84.651497
976.000000, 83.430099
977.000000, 82.188599
978.000000, 80.984200
979.000000, 79.563568
980.000000, 78.260498
981.000000, 76.969322
982.000000, 75.511971
983.000000, 74.152740
984.000000, 72.986610
985.000000, 71.777138
986.000000, 70.515175
987.000000, 69.349846
988.000000, 68.248016
989.000000, 67.325676
990.000000, 66.274872
991.000000, 65.501877
992.000000, 64.702896
993.000000, 64.070671
994.000000, 63.450611
995.000000, 62.837624
996.000000, 62.399284
997.000000, 62.037861
998.000000, 61.726891
999.000000, 61.419823
1000.000000, 61.294510
1001.000000, 61.133396
1002.000000, 61.165611
1003.000000, 61.104034
1004.000000, 61.325920
1005.000000, 61.491322
1006.000000, 61.697060
1007.000000, 62.063175
1008.000000, 62.558098
1009.000000, 62.918961
1010.000000, 63.483315
1011.000000, 64.112335
1012.000000, 64.747932
1013.000000, 65.466072
1014.000000, 66.236572
1015.000000, 67.115662
1016.000000, 68.055389
1017.000000, 68.910042
1018.000000, 69.961266
1019.000000, 70.940659
1020.000000, 71.985374
1021.000000, 73.123863
1022.000000, 74.360336
1023.000000, 75.444176
1024.000000, 76.635254
1025.000000, 77.769089
1026.000000, 79.067322
1027.000000, 80.165771
1028.000000, 81.302109
1029.000000, 82.436058
1030.000000, 83.522789
1031.000000, 84.473839
1032.000000, 85.506477
1033.000000, 86.243774
1034.000000, 87.043877
1035.000000, 87.821777
1036.000000, 88.477097
1037.000000, 88.878624
1038.000000, 89.341331
1039.000000, 89.631332
1040.000000, 89.709015
1041.000000, 89.971138
1042.000000, 89.870544
1043.000000, 89.628479
1044.000000, 89.417992
1045.000000, 89.000519
1046.000000, 88.585693
1047.000000, 88.209694
1048.000000, 87.467529
1049.000000, 86.793503
1050.000000, 86.057976
1051.000000, 85.291481
1052.000000, 84.425125
1053.000000, 83.578369
1054.000000, 82.646164
1055.000000, 81.834709
1056.000000, 80.841690
1057.000000, 79.881195
1058.000000, 78.991234
1059.000000, 78.090538
1060.000000, 77.198486
1061.000000, 76.351822
1062.000000, 75.554779
1063.000000, 74.757042
1064.000000, 73.992729
1065.000000, 73.276695
1066.000000, 72.661118
1067.000000, 71.815514
1068.000000, 71.295074
1069.000000, 70.832184
1070.000000, 70.289650
1071.000000, 69.761452
1072.000000, 69.346451
1073.000000, 68.917778
1074.000000, 68.631546
1075.000000, 68.287262
1076.000000, 68.067780
1077.000000, 67.986694
1078.000000, 67.788818
1079.000000, 67.740494
1080.000000, 67.685226
