# Wavelength  (nm), Transmission (%)
250.000000, 0.767420
251.000000, 0.392040
252.000000, 0.486110
253.000000, 0.597660
254.000000, 0.710370
255.000000, 0.446250
256.000000, 0.427450
257.000000, 0.519480
258.000000, 0.491100
259.000000, 0.604560
260.000000, 0.809130
261.000000, 0.630010
262.000000, 0.473630
263.000000, 0.598800
264.000000, 0.230560
265.000000, 0.430200
266.000000, 0.470460
267.000000, 0.608180
268.000000, 0.296940
269.000000, 0.447580
270.000000, 0.386460
271.000000, 0.456450
272.000000, 0.555680
273.000000, 0.779060
274.000000, 0.356900
275.000000, 0.658400
276.000000, 0.380110
277.000000, 0.566270
278.000000, 1.256970
279.000000, 0.636580
280.000000, 0.651250
281.000000, 0.572120
282.000000, 0.491290
283.000000, 0.575680
284.000000, 0.799130
285.000000, 0.425200
286.000000, 0.311120
287.000000, 0.479810
288.000000, 0.683440
289.000000, 0.883080
290.000000, 1.360870
291.000000, 1.246540
292.000000, 1.124460
293.000000, 0.955960
294.000000, 1.084060
295.000000, 1.365610
296.000000, 1.321920
297.000000, 1.685570
298.000000, 2.181330
299.000000, 2.543480
300.000000, 3.035210
301.000000, 3.320310
302.000000, 3.749020
303.000000, 4.953850
304.000000, 5.569170
305.000000, 7.108880
306.000000, 9.851070
307.000000, 11.575760
308.000000, 12.686310
309.000000, 13.918020
310.000000, 16.250630
311.000000, 17.929040
312.000000, 21.515970
313.000000, 25.622030
314.000000, 30.077100
315.000000, 33.086230
316.000000, 33.783910
317.000000, 32.983310
318.000000, 29.771910
319.000000, 26.482290
320.000000, 23.612760
321.000000, 23.692860
322.000000, 25.016950
323.000000, 26.588620
324.000000, 27.215080
325.000000, 27.337700
326.000000, 26.053350
327.000000, 24.947070
328.000000, 24.909170
329.000000, 26.501390
330.000000, 30.433390
331.000000, 34.448910
332.000000, 38.078060
333.000000, 40.342060
334.000000, 40.850340
335.000000, 40.589400
336.000000, 40.418550
337.000000, 40.730420
338.000000, 40.673030
339.000000, 40.000190
340.000000, 38.504900
341.000000, 35.900310
342.000000, 32.811300
343.000000, 29.973750
344.000000, 28.190590
345.000000, 27.899580
346.000000, 29.370270
347.000000, 32.255310
348.000000, 35.498960
349.000000, 39.084300
350.000000, 42.044230
351.000000, 43.665060
352.000000, 43.210450
353.000000, 40.422720
354.000000, 35.985830
355.000000, 30.205370
356.000000, 24.036870
357.000000, 18.037640
358.000000, 13.242830
359.000000, 10.059920
360.000000, 7.765010
361.000000, 6.593680
362.000000, 5.575960
363.000000, 4.451600
364.000000, 3.260990
365.000000, 2.054240
366.000000, 1.101500
367.000000, 0.636460
368.000000, 0.420060
369.000000, 0.271330
370.000000, 0.316620
371.000000, 0.373710
372.000000, 0.479470
373.000000, 0.588140
374.000000, 0.645760
375.000000, 0.892290
376.000000, 1.098480
377.000000, 1.252070
378.000000, 1.332800
379.000000, 1.300350
380.000000, 1.248690
381.000000, 1.165080
382.000000, 0.978840
383.000000, 0.844210
384.000000, 0.830220
385.000000, 0.777080
386.000000, 0.816600
387.000000, 0.806040
388.000000, 0.802970
389.000000, 0.732470
390.000000, 0.720990
391.000000, 0.656680
392.000000, 0.639290
393.000000, 0.610490
394.000000, 0.579010
395.000000, 0.556330
396.000000, 0.559840
397.000000, 0.529360
398.000000, 0.532050
399.000000, 0.506380
400.000000, 0.435490
401.000000, 0.448110
402.000000, 0.367270
403.000000, 0.327290
404.000000, 0.323030
405.000000, 0.301120
406.000000, 0.325660
407.000000, 0.341380
408.000000, 0.362670
409.000000, 0.387320
410.000000, 0.383990
411.000000, 0.406210
412.000000, 0.395320
413.000000, 0.387480
414.000000, 0.362360
415.000000, 0.379780
416.000000, 0.422220
417.000000, 0.405250
418.000000, 0.442520
419.000000, 0.471150
420.000000, 0.477650
421.000000, 0.432610
422.000000, 0.388590
423.000000, 0.339950
424.000000, 0.275360
425.000000, 0.230540
426.000000, 0.191380
427.000000, 0.170750
428.000000, 0.158380
429.000000, 0.185800
430.000000, 0.192250
431.000000, 0.222700
432.000000, 0.240480
433.000000, 0.278720
434.000000, 0.290510
435.000000, 0.297830
436.000000, 0.281030
437.000000, 0.255890
438.000000, 0.233640
439.000000, 0.215780
440.000000, 0.215330
441.000000, 0.210920
442.000000, 0.236650
443.000000, 0.258880
444.000000, 0.311220
445.000000, 0.345120
446.000000, 0.369710
447.000000, 0.349310
448.000000, 0.318060
449.000000, 0.280940
450.000000, 0.219280
451.000000, 0.166380
452.000000, 0.124750
453.000000, 0.071930
454.000000, 0.052930
455.000000, 0.047790
456.000000, 0.027110
457.000000, 0.036100
458.000000, 0.027720
459.000000, 0.029220
460.000000, 0.030990
461.000000, 0.036530
462.000000, 0.042260
463.000000, 0.048730
464.000000, 0.071260
465.000000, 0.105480
466.000000, 0.131290
467.000000, 0.167590
468.000000, 0.222870
469.000000, 0.267010
470.000000, 0.288780
471.000000, 0.322420
472.000000, 0.336440
473.000000, 0.337680
474.000000, 0.335980
475.000000, 0.304810
476.000000, 0.280020
477.000000, 0.251530
478.000000, 0.218250
479.000000, 0.181350
480.000000, 0.166400
481.000000, 0.150380
482.000000, 0.149380
483.000000, 0.151750
484.000000, 0.183270
485.000000, 0.213050
486.000000, 0.275410
487.000000, 0.352130
488.000000, 0.470750
489.000000, 0.647930
490.000000, 0.941750
491.000000, 1.407540
492.000000, 2.197250
493.000000, 3.471180
494.000000, 5.295500
495.000000, 7.840450
496.000000, 11.040460
497.000000, 14.736030
498.000000, 18.780880
499.000000, 22.958070
500.000000, 27.162070
501.000000, 31.287010
502.000000, 35.114270
503.000000, 38.553160
504.000000, 41.468970
505.000000, 43.820410
506.000000, 45.708050
507.000000, 47.349390
508.000000, 49.051200
509.000000, 51.056180
510.000000, 53.440420
511.000000, 56.324090
512.000000, 59.646820
513.000000, 63.258390
514.000000, 67.085800
515.000000, 71.041260
516.000000, 74.981130
517.000000, 78.831380
518.000000, 82.403500
519.000000, 85.668680
520.000000, 90.566490
521.000000, 90.966450
522.000000, 92.868190
523.000000, 94.271520
524.000000, 95.227020
525.000000, 95.852950
526.000000, 96.232350
527.000000, 96.484980
528.000000, 96.699130
529.000000, 96.899150
530.000000, 97.088620
531.000000, 97.283950
532.000000, 97.459340
533.000000, 97.586730
534.000000, 97.719060
535.000000, 97.816520
536.000000, 97.906630
537.000000, 97.967880
538.000000, 98.041240
539.000000, 98.121810
540.000000, 98.186230
541.000000, 98.260830
542.000000, 98.311520
543.000000, 98.333130
544.000000, 98.336720
545.000000, 98.295020
546.000000, 98.249000
547.000000, 98.161300
548.000000, 98.077630
549.000000, 98.023020
550.000000, 97.957520
551.000000, 97.932500
552.000000, 97.922880
553.000000, 97.942200
554.000000, 98.000820
555.000000, 98.057390
556.000000, 98.125780
557.000000, 98.198860
558.000000, 98.270000
559.000000, 98.321290
560.000000, 98.350780
561.000000, 98.377120
562.000000, 98.376750
563.000000, 98.376050
564.000000, 98.359210
565.000000, 98.341040
566.000000, 98.300450
567.000000, 98.308750
568.000000, 98.295650
569.000000, 98.276530
570.000000, 98.304050
571.000000, 98.302920
572.000000, 98.304170
573.000000, 98.307000
574.000000, 98.303800
575.000000, 98.288460
576.000000, 98.279570
577.000000, 98.240860
578.000000, 98.197090
579.000000, 98.145640
580.000000, 98.081860
581.000000, 98.042210
582.000000, 97.982810
583.000000, 97.936920
584.000000, 97.895410
585.000000, 97.863040
586.000000, 97.852460
587.000000, 97.825600
588.000000, 97.846320
589.000000, 97.861650
590.000000, 97.887170
591.000000, 97.914460
592.000000, 97.955700
593.000000, 97.982290
594.000000, 98.025510
595.000000, 98.066730
596.000000, 98.092530
597.000000, 98.128370
598.000000, 98.154450
599.000000, 98.185500
600.000000, 98.210880
601.000000, 98.241760
602.000000, 98.265470
603.000000, 98.302060
604.000000, 98.319350
605.000000, 98.360260
606.000000, 98.386230
607.000000, 98.417890
608.000000, 98.458070
609.000000, 98.494750
610.000000, 98.517400
611.000000, 98.546280
612.000000, 98.585960
613.000000, 98.615930
614.000000, 98.640010
615.000000, 98.662130
616.000000, 98.672950
617.000000, 98.689690
618.000000, 98.709630
619.000000, 98.710700
620.000000, 98.728160
621.000000, 98.741530
622.000000, 98.741870
623.000000, 98.752430
624.000000, 98.749100
625.000000, 98.755650
626.000000, 98.741850
627.000000, 98.748210
628.000000, 98.739900
629.000000, 98.746700
630.000000, 98.726590
631.000000, 98.724130
632.000000, 98.702120
633.000000, 98.697120
634.000000, 98.679490
635.000000, 98.674140
636.000000, 98.643270
637.000000, 98.633660
638.000000, 98.605960
639.000000, 98.590930
640.000000, 98.585400
641.000000, 98.572360
642.000000, 98.557920
643.000000, 98.549660
644.000000, 98.538670
645.000000, 98.539450
646.000000, 98.537560
647.000000, 98.537920
648.000000, 98.533600
649.000000, 98.541780
650.000000, 98.550540
651.000000, 98.553590
652.000000, 98.574380
653.000000, 98.556630
654.000000, 98.577870
655.000000, 98.582160
656.000000, 98.585420
657.000000, 98.588000
658.000000, 98.582460
659.000000, 98.583580
660.000000, 98.573860
661.000000, 98.586600
662.000000, 98.585540
663.000000, 98.583040
664.000000, 98.600950
665.000000, 98.595430
666.000000, 98.604060
667.000000, 98.613040
668.000000, 98.621460
669.000000, 98.638920
670.000000, 98.658940
671.000000, 98.659670
672.000000, 98.674380
673.000000, 98.671490
674.000000, 98.702410
675.000000, 98.717600
676.000000, 98.725430
677.000000, 98.729710
678.000000, 98.741610
679.000000, 98.750420
680.000000, 98.761410
681.000000, 98.763100
682.000000, 98.760770
683.000000, 98.762870
684.000000, 98.757460
685.000000, 98.778210
686.000000, 98.749820
687.000000, 98.735730
688.000000, 98.755490
689.000000, 98.740110
690.000000, 98.726080
691.000000, 98.723820
692.000000, 98.731140
693.000000, 98.718890
694.000000, 98.727390
695.000000, 98.714330
696.000000, 98.715420
697.000000, 98.738430
698.000000, 98.737190
699.000000, 98.756950
700.000000, 98.741550
701.000000, 98.749860
702.000000, 98.766320
703.000000, 98.767650
704.000000, 98.760010
705.000000, 98.761570
706.000000, 98.777020
707.000000, 98.756240
708.000000, 98.758650
709.000000, 98.750520
710.000000, 98.757510
711.000000, 98.735490
712.000000, 98.732950
713.000000, 98.738150
714.000000, 98.723760
715.000000, 98.703460
716.000000, 98.699730
717.000000, 98.695880
718.000000, 98.688230
719.000000, 98.687000
720.000000, 98.706950
721.000000, 98.712240
722.000000, 98.707730
723.000000, 98.718380
724.000000, 98.724730
725.000000, 98.721570
726.000000, 98.747940
727.000000, 98.767590
728.000000, 98.784000
729.000000, 98.780820
730.000000, 98.816500
731.000000, 98.828910
732.000000, 98.853750
733.000000, 98.867180
734.000000, 98.885960
735.000000, 98.894880
736.000000, 98.927100
737.000000, 98.930010
738.000000, 98.959950
739.000000, 98.966910
740.000000, 98.990750
741.000000, 98.987480
742.000000, 98.976390
743.000000, 98.979960
744.000000, 98.997680
745.000000, 98.986590
746.000000, 98.988760
747.000000, 98.969490
748.000000, 98.960770
749.000000, 98.944420
750.000000, 98.946820
751.000000, 98.958100
752.000000, 98.936940
753.000000, 98.933350
754.000000, 98.911370
755.000000, 98.918470
756.000000, 98.912090
757.000000, 98.901650
758.000000, 98.889770
759.000000, 98.898890
760.000000, 98.877190
761.000000, 98.870010
762.000000, 98.852520
763.000000, 98.875350
764.000000, 98.886170
765.000000, 98.859430
766.000000, 98.865900
767.000000, 98.870420
768.000000, 98.849790
769.000000, 98.861970
770.000000, 98.853040
771.000000, 98.846690
772.000000, 98.843400
773.000000, 98.841690
774.000000, 98.842510
775.000000, 98.829120
776.000000, 98.814220
777.000000, 98.826230
778.000000, 98.813320
779.000000, 98.803230
780.000000, 98.812740
781.000000, 98.805730
782.000000, 98.805420
783.000000, 98.787730
784.000000, 98.786310
785.000000, 98.784160
786.000000, 98.773660
787.000000, 98.765010
788.000000, 98.768840
789.000000, 98.757770
790.000000, 98.757800
791.000000, 98.752150
792.000000, 98.751420
793.000000, 98.724820
794.000000, 98.714450
795.000000, 98.708150
796.000000, 98.695410
797.000000, 98.684910
798.000000, 98.670870
799.000000, 98.644390
800.000000, 98.630910
801.000000, 98.602900
802.000000, 98.601020
803.000000, 98.577970
804.000000, 98.550450
805.000000, 98.523320
806.000000, 98.484920
807.000000, 98.468290
808.000000, 98.444630
809.000000, 98.410660
810.000000, 98.387150
811.000000, 98.330430
812.000000, 98.293200
813.000000, 98.231560
814.000000, 98.183340
815.000000, 98.114400
816.000000, 98.053240
817.000000, 97.973330
818.000000, 97.883770
819.000000, 97.779630
820.000000, 97.641620
821.000000, 97.526810
822.000000, 97.369480
823.000000, 97.202100
824.000000, 97.013940
825.000000, 96.803020
826.000000, 96.580600
827.000000, 96.297810
828.000000, 96.018420
829.000000, 95.699640
830.000000, 95.342500
831.000000, 94.960410
832.000000, 94.573390
833.000000, 94.119760
834.000000, 93.657140
835.000000, 93.161410
836.000000, 92.599220
837.000000, 92.048900
838.000000, 91.462310
839.000000, 90.826300
840.000000, 90.153330
841.000000, 89.491050
842.000000, 88.754970
843.000000, 88.013310
844.000000, 87.289630
845.000000, 86.512600
846.000000, 85.702320
847.000000, 84.890280
848.000000, 84.036400
849.000000, 83.165290
850.000000, 82.315240
851.000000, 81.425160
852.000000, 80.501480
853.000000, 79.595780
854.000000, 78.657380
855.000000, 77.677100
856.000000, 76.705860
857.000000, 75.703230
858.000000, 74.698290
859.000000, 73.633310
860.000000, 72.595720
861.000000, 71.484270
862.000000, 70.358620
863.000000, 69.247600
864.000000, 68.080310
865.000000, 66.874340
866.000000, 65.686600
867.000000, 64.426040
868.000000, 63.131140
869.000000, 61.870430
870.000000, 60.568120
871.000000, 59.205020
872.000000, 57.879840
873.000000, 56.497280
874.000000, 55.087400
875.000000, 53.714300
876.000000, 52.332040
877.000000, 50.921480
878.000000, 49.501790
879.000000, 48.142000
880.000000, 46.715570
881.000000, 45.346800
882.000000, 44.023550
883.000000, 42.690100
884.000000, 41.369260
885.000000, 40.098850
886.000000, 38.850830
887.000000, 37.602370
888.000000, 36.449380
889.000000, 35.311560
890.000000, 34.188230
891.000000, 33.153350
892.000000, 32.113390
893.000000, 31.113950
894.000000, 30.183750
895.000000, 29.292730
896.000000, 28.430700
897.000000, 27.614880
898.000000, 26.856110
899.000000, 26.106310
900.000000, 25.416460
901.000000, 24.774710
902.000000, 24.158420
903.000000, 23.575480
904.000000, 23.038970
905.000000, 22.528110
906.000000, 22.045950
907.000000, 21.620000
908.000000, 21.207800
909.000000, 20.825090
910.000000, 20.483470
911.000000, 20.160400
912.000000, 19.861060
913.000000, 19.598970
914.000000, 19.360410
915.000000, 19.143120
916.000000, 18.953700
917.000000, 18.789640
918.000000, 18.642250
919.000000, 18.522290
920.000000, 18.425790
921.000000, 18.349990
922.000000, 18.292910
923.000000, 18.259740
924.000000, 18.244210
925.000000, 18.252300
926.000000, 18.275730
927.000000, 18.322920
928.000000, 18.392240
929.000000, 18.471180
930.000000, 18.576950
931.000000, 18.702770
932.000000, 18.842910
933.000000, 19.000940
934.000000, 19.185010
935.000000, 19.383380
936.000000, 19.597640
937.000000, 19.842840
938.000000, 20.102990
939.000000, 20.366910
940.000000, 20.659980
941.000000, 20.969810
942.000000, 21.297830
943.000000, 21.645770
944.000000, 22.023020
945.000000, 22.394480
946.000000, 22.796530
947.000000, 23.220570
948.000000, 23.640870
949.000000, 24.098060
950.000000, 24.576450
951.000000, 25.043780
952.000000, 25.536970
953.000000, 26.047990
954.000000, 26.573980
955.000000, 27.096680
956.000000, 27.658220
957.000000, 28.216530
958.000000, 28.769110
959.000000, 29.348900
960.000000, 29.928150
961.000000, 30.501930
962.000000, 31.112870
963.000000, 31.717250
964.000000, 32.301810
965.000000, 32.904970
966.000000, 33.527340
967.000000, 34.114090
968.000000, 34.716740
969.000000, 35.330660
970.000000, 35.911450
971.000000, 36.509560
972.000000, 37.092090
973.000000, 37.677090
974.000000, 38.247420
975.000000, 38.834840
976.000000, 39.383840
977.000000, 39.925880
978.000000, 40.479120
979.000000, 41.015860
980.000000, 41.539110
981.000000, 42.067300
982.000000, 42.581860
983.000000, 43.074810
984.000000, 43.577990
985.000000, 44.083530
986.000000, 44.551570
987.000000, 45.042140
988.000000, 45.544070
989.000000, 46.002450
990.000000, 46.479270
991.000000, 46.956830
992.000000, 47.424020
993.000000, 47.901430
994.000000, 48.406490
995.000000, 48.888490
996.000000, 49.369350
997.000000, 49.878420
998.000000, 50.387230
999.000000, 50.908280
1000.000000, 51.446600
1001.000000, 52.007070
1002.000000, 52.546940
1003.000000, 53.127880
1004.000000, 53.721850
1005.000000, 54.296340
1006.000000, 54.936330
1007.000000, 55.583750
1008.000000, 56.205330
1009.000000, 56.875070
1010.000000, 57.568980
1011.000000, 58.235190
1012.000000, 58.938020
1013.000000, 59.689370
1014.000000, 60.411940
1015.000000, 61.137120
1016.000000, 61.888220
1017.000000, 62.630700
1018.000000, 63.383330
1019.000000, 64.162520
1020.000000, 64.934100
1021.000000, 65.660110
1022.000000, 66.415530
1023.000000, 67.186190
1024.000000, 67.891260
1025.000000, 68.605110
1026.000000, 69.316990
1027.000000, 69.959830
1028.000000, 70.606700
1029.000000, 71.219380
1030.000000, 71.770050
1031.000000, 72.294670
1032.000000, 72.776480
1033.000000, 73.199080
1034.000000, 73.551740
1035.000000, 73.869640
1036.000000, 74.111410
1037.000000, 74.293990
1038.000000, 74.405000
1039.000000, 74.448910
1040.000000, 74.401810
1041.000000, 74.329730
1042.000000, 74.139630
1043.000000, 73.910550
1044.000000, 73.581220
1045.000000, 73.196520
1046.000000, 72.784130
1047.000000, 72.286220
1048.000000, 71.730160
1049.000000, 71.140750
1050.000000, 69.821780
1051.000000, 69.133940
1052.000000, 68.468760
1053.000000, 67.744080
1054.000000, 66.993800
1055.000000, 66.249500
1056.000000, 65.472520
1057.000000, 64.684980
1058.000000, 63.904440
1059.000000, 63.132090
1060.000000, 62.364970
1061.000000, 61.571020
1062.000000, 60.837710
1063.000000, 60.068300
1064.000000, 59.330820
1065.000000, 58.636990
1066.000000, 57.937970
1067.000000, 57.251100
1068.000000, 56.622120
1069.000000, 55.990560
1070.000000, 55.373730
1071.000000, 54.819900
1072.000000, 54.262370
1073.000000, 53.742900
1074.000000, 53.253000
1075.000000, 52.783680
1076.000000, 52.327340
1077.000000, 51.912440
1078.000000, 51.520570
1079.000000, 51.140300
1080.000000, 50.783940
1081.000000, 50.474070
1082.000000, 50.143460
1083.000000, 49.863940
1084.000000, 49.603910
1085.000000, 49.349910
1086.000000, 49.117240
1087.000000, 48.909020
1088.000000, 48.704470
1089.000000, 48.505360
1090.000000, 48.344510
1091.000000, 48.189570
1092.000000, 48.031400
1093.000000, 47.898540
1094.000000, 47.787220
1095.000000, 47.648740
1096.000000, 47.572030
1097.000000, 47.453680
1098.000000, 47.376570
1099.000000, 47.284450
1100.000000, 47.215070
1101.000000, 47.140240
1102.000000, 47.069860
1103.000000, 47.000100
1104.000000, 46.925290
1105.000000, 46.886810
1106.000000, 46.809960
1107.000000, 46.777310
1108.000000, 46.711820
1109.000000, 46.611040
1110.000000, 46.613660
1111.000000, 46.549510
1112.000000, 46.476900
1113.000000, 46.378640
1114.000000, 46.387460
1115.000000, 46.313230
1116.000000, 46.228030
1117.000000, 46.182970
1118.000000, 46.140110
1119.000000, 46.066240
1120.000000, 46.007620
1121.000000, 45.935130
1122.000000, 45.866000
1123.000000, 45.794460
1124.000000, 45.748780
1125.000000, 45.663630
1126.000000, 45.613100
1127.000000, 45.529580
1128.000000, 45.461760
1129.000000, 45.436620
1130.000000, 45.337970
1131.000000, 45.285070
1132.000000, 45.259470
1133.000000, 45.176790
1134.000000, 45.157960
1135.000000, 45.092670
1136.000000, 45.062240
1137.000000, 45.005680
1138.000000, 45.000020
1139.000000, 44.958640
1140.000000, 44.942940
1141.000000, 44.909210
1142.000000, 44.933180
1143.000000, 44.938190
1144.000000, 44.947620
1145.000000, 44.953380
1146.000000, 45.005740
1147.000000, 45.058290
1148.000000, 45.078890
1149.000000, 45.154020
1150.000000, 45.236000
1151.000000, 45.292910
1152.000000, 45.430980
1153.000000, 45.532860
1154.000000, 45.628180
1155.000000, 45.763010
1156.000000, 45.908510
1157.000000, 46.079120
