# Wavelength  (nm), Transmission (%)
200.000000, 0.000110
201.000000, 0.000019
202.000000, 0.000114
203.000000, 0.000083
204.000000, 0.000021
205.000000, 0.000002
206.000000, 0.000095
207.000000, 0.000050
208.000000, 0.000056
209.000000, 0.000114
210.000000, 0.000069
211.000000, 0.000200
212.000000, 0.000193
213.000000, 0.000073
214.000000, 0.000102
215.000000, 0.000164
216.000000, 0.000060
217.000000, 0.000035
218.000000, 0.000035
219.000000, 0.000036
220.000000, 0.000084
221.000000, 0.000097
222.000000, 0.000068
223.000000, 0.000064
224.000000, 0.000066
225.000000, 0.000100
226.000000, 0.000060
227.000000, 0.000172
228.000000, 0.000189
229.000000, 0.000078
230.000000, 0.000081
231.000000, 0.000023
232.000000, 0.000066
233.000000, 0.000112
234.000000, 0.000011
235.000000, 0.000029
236.000000, 0.000039
237.000000, 0.000056
238.000000, 0.000039
239.000000, 0.000037
240.000000, 0.000038
241.000000, 0.000125
242.000000, 0.000082
243.000000, 0.000096
244.000000, 0.000220
245.000000, 0.000034
246.000000, 0.000102
247.000000, 0.000037
248.000000, 0.000162
249.000000, 0.000118
250.000000, 0.000094
251.000000, 0.000055
252.000000, 0.000021
253.000000, 0.000039
254.000000, 0.000085
255.000000, 0.000059
256.000000, 0.000034
257.000000, 0.000104
258.000000, 0.000246
259.000000, 0.000063
260.000000, 0.000152
261.000000, 0.000085
262.000000, 0.000032
263.000000, 0.000335
264.000000, 0.000351
265.000000, 0.000193
266.000000, 0.000118
267.000000, 0.000102
268.000000, 0.000012
269.000000, 0.000095
270.000000, 0.000061
271.000000, 0.000069
272.000000, 0.000216
273.000000, 0.000032
274.000000, 0.000003
275.000000, 0.000159
276.000000, 0.000250
277.000000, 0.000127
278.000000, 0.000021
279.000000, 0.000039
280.000000, 0.000089
281.000000, 0.000087
282.000000, 0.000188
283.000000, 0.000168
284.000000, 0.000062
285.000000, 0.000110
286.000000, 0.000007
287.000000, 0.000018
288.000000, 0.000043
289.000000, 0.000036
290.000000, 0.000067
291.000000, 0.000048
292.000000, 0.000222
293.000000, 0.000144
294.000000, 0.000034
295.000000, 0.000083
296.000000, 0.000018
297.000000, 0.000120
298.000000, 0.000085
299.000000, 0.000021
300.000000, 0.000116
301.000000, 0.000055
302.000000, 0.000057
303.000000, 0.000143
304.000000, 0.000072
305.000000, 0.000050
306.000000, 0.000204
307.000000, 0.000218
308.000000, 0.000318
309.000000, 0.000109
310.000000, 0.000032
311.000000, 0.000012
312.000000, 0.000065
313.000000, 0.000375
314.000000, 0.000313
315.000000, 0.000076
316.000000, 0.000156
317.000000, 0.000221
318.000000, 0.000039
319.000000, 0.000244
320.000000, 0.000553
321.000000, 0.000065
322.000000, 0.000016
323.000000, 0.000144
324.000000, 0.000010
325.000000, 0.000377
326.000000, 0.000071
327.000000, 0.000085
328.000000, 0.000003
329.000000, 0.000264
330.000000, 0.000357
331.000000, 0.000088
332.000000, 0.000044
333.000000, 0.000273
334.000000, 0.000454
335.000000, 0.000244
336.000000, 0.000009
337.000000, 0.000101
338.000000, 0.000103
339.000000, 0.000002
340.000000, 0.000123
341.000000, 0.000166
342.000000, 0.000016
343.000000, 0.000180
344.000000, 0.000127
345.000000, 0.000001
346.000000, 0.000193
347.000000, 0.000002
348.000000, 0.000208
349.000000, 0.000028
350.000000, 0.000199
351.000000, 0.000008
352.000000, 0.000255
353.000000, 0.000180
354.000000, 0.000002
355.000000, 0.000090
356.000000, 0.000073
357.000000, 0.000345
358.000000, 0.000156
359.000000, 0.000119
360.000000, 0.000033
361.000000, 0.000129
362.000000, 0.000059
363.000000, 0.000066
364.000000, 0.000139
365.000000, 0.000148
366.000000, 0.000074
367.000000, 0.000087
368.000000, 0.000175
369.000000, 0.000052
370.000000, 0.000108
371.000000, 0.000070
372.000000, 0.000023
373.000000, 0.000138
374.000000, 0.000181
375.000000, 0.000365
376.000000, 0.000052
377.000000, 0.000140
378.000000, 0.000162
379.000000, 0.000079
380.000000, 0.000301
381.000000, 0.000177
382.000000, 0.000021
383.000000, 0.000286
384.000000, 0.000184
385.000000, 0.000320
386.000000, 0.000210
387.000000, 0.000019
388.000000, 0.000022
389.000000, 0.000103
390.000000, 0.000348
391.000000, 0.000244
392.000000, 0.000095
393.000000, 0.000361
394.000000, 0.000070
395.000000, 0.000031
396.000000, 0.000156
397.000000, 0.000148
398.000000, 0.000242
399.000000, 0.000068
400.000000, 0.000124
401.000000, 0.000116
402.000000, 0.000038
403.000000, 0.000018
404.000000, 0.000174
405.000000, 0.000086
406.000000, 0.000091
407.000000, 0.000331
408.000000, 0.000398
409.000000, 0.000133
410.000000, 0.000005
411.000000, 0.000167
412.000000, 0.000048
413.000000, 0.000142
414.000000, 0.000046
415.000000, 0.000019
416.000000, 0.000157
417.000000, 0.000117
418.000000, 0.000113
419.000000, 0.000220
420.000000, 0.000198
421.000000, 0.000036
422.000000, 0.000070
423.000000, 0.000070
424.000000, 0.000138
425.000000, 0.000084
426.000000, 0.000293
427.000000, 0.000065
428.000000, 0.000060
429.000000, 0.000247
430.000000, 0.000264
431.000000, 0.000171
432.000000, 0.000105
433.000000, 0.000361
434.000000, 0.000288
435.000000, 0.000054
436.000000, 0.000026
437.000000, 0.000152
438.000000, 0.000111
439.000000, 0.000025
440.000000, 0.000099
441.000000, 0.000042
442.000000, 0.000098
443.000000, 0.000175
444.000000, 0.000138
445.000000, 0.000032
446.000000, 0.000074
447.000000, 0.000188
448.000000, 0.000056
449.000000, 0.000054
450.000000, 0.000263
451.000000, 0.000236
452.000000, 0.000084
453.000000, 0.000039
454.000000, 0.000115
455.000000, 0.000362
456.000000, 0.000128
457.000000, 0.000043
458.000000, 0.000027
459.000000, 0.000189
460.000000, 0.000111
461.000000, 0.000006
462.000000, 0.000033
463.000000, 0.000141
464.000000, 0.000045
465.000000, 0.000057
466.000000, 0.000003
467.000000, 0.000030
468.000000, 0.000094
469.000000, 0.000065
470.000000, 0.000062
471.000000, 0.000254
472.000000, 0.000305
473.000000, 0.000085
474.000000, 0.000151
475.000000, 0.000142
476.000000, 0.000185
477.000000, 0.000150
478.000000, 0.000048
479.000000, 0.000106
480.000000, 0.000055
481.000000, 0.000091
482.000000, 0.000038
483.000000, 0.000062
484.000000, 0.000061
485.000000, 0.000059
486.000000, 0.000044
487.000000, 0.000023
488.000000, 0.000150
489.000000, 0.000085
490.000000, 0.000114
491.000000, 0.000091
492.000000, 0.000067
493.000000, 0.000129
494.000000, 0.000069
495.000000, 0.000214
496.000000, 0.000053
497.000000, 0.000081
498.000000, 0.000067
499.000000, 0.000028
500.000000, 0.000042
501.000000, 0.000067
502.000000, 0.000104
503.000000, 0.000090
504.000000, 0.000101
505.000000, 0.000191
506.000000, 0.000138
507.000000, 0.000182
508.000000, 0.000101
509.000000, 0.000044
510.000000, 0.000015
511.000000, 0.000075
512.000000, 0.000150
513.000000, 0.000073
514.000000, 0.000084
515.000000, 0.000070
516.000000, 0.000127
517.000000, 0.000044
518.000000, 0.000090
519.000000, 0.000103
520.000000, 0.000142
521.000000, 0.000063
522.000000, 0.000068
523.000000, 0.000000
524.000000, 0.000090
525.000000, 0.000083
526.000000, 0.000064
527.000000, 0.000178
528.000000, 0.000186
529.000000, 0.000175
530.000000, 0.000025
531.000000, 0.000095
532.000000, 0.000215
533.000000, 0.000052
534.000000, 0.000119
535.000000, 0.000077
536.000000, 0.000213
537.000000, 0.000301
538.000000, 0.000025
539.000000, 0.000021
540.000000, 0.000042
541.000000, 0.000123
542.000000, 0.000040
543.000000, 0.000072
544.000000, 0.000033
545.000000, 0.000155
546.000000, 0.000004
547.000000, 0.000099
548.000000, 0.000093
549.000000, 0.000092
550.000000, 0.000238
551.000000, 0.000004
552.000000, 0.000040
553.000000, 0.000087
554.000000, 0.000042
555.000000, 0.000041
556.000000, 0.000073
557.000000, 0.000155
558.000000, 0.000083
559.000000, 0.000018
560.000000, 0.000004
561.000000, 0.000061
562.000000, 0.000163
563.000000, 0.000031
564.000000, 0.000031
565.000000, 0.000139
566.000000, 0.000043
567.000000, 0.000049
568.000000, 0.000309
569.000000, 0.000005
570.000000, 0.000069
571.000000, 0.000025
572.000000, 0.000223
573.000000, 0.000082
574.000000, 0.000037
575.000000, 0.000061
576.000000, 0.000063
577.000000, 0.000293
578.000000, 0.000052
579.000000, 0.000061
580.000000, 0.000097
581.000000, 0.000202
582.000000, 0.000433
583.000000, 0.000083
584.000000, 0.000154
585.000000, 0.000018
586.000000, 0.000098
587.000000, 0.000125
588.000000, 0.000233
589.000000, 0.000020
590.000000, 0.000021
591.000000, 0.000166
592.000000, 0.000215
593.000000, 0.000463
594.000000, 0.000273
595.000000, 0.000256
596.000000, 0.000323
597.000000, 0.000216
598.000000, 0.000064
599.000000, 0.000062
600.000000, 0.000106
601.000000, 0.000147
602.000000, 0.000069
603.000000, 0.000235
604.000000, 0.000151
605.000000, 0.000067
606.000000, 0.000073
607.000000, 0.000061
608.000000, 0.000084
609.000000, 0.000036
610.000000, 0.000002
611.000000, 0.000079
612.000000, 0.000027
613.000000, 0.000063
614.000000, 0.000187
615.000000, 0.000078
616.000000, 0.000210
617.000000, 0.000116
618.000000, 0.000028
619.000000, 0.000107
620.000000, 0.000343
621.000000, 0.000009
622.000000, 0.000059
623.000000, 0.000046
624.000000, 0.000090
625.000000, 0.000096
626.000000, 0.000107
627.000000, 0.000144
628.000000, 0.000150
629.000000, 0.000010
630.000000, 0.000224
631.000000, 0.000085
632.000000, 0.000129
633.000000, 0.000172
634.000000, 0.000049
635.000000, 0.000108
636.000000, 0.000058
637.000000, 0.000001
638.000000, 0.000242
639.000000, 0.000252
640.000000, 0.000165
641.000000, 0.000168
642.000000, 0.000019
643.000000, 0.000106
644.000000, 0.000014
645.000000, 0.000396
646.000000, 0.000053
647.000000, 0.000277
648.000000, 0.000053
649.000000, 0.000148
650.000000, 0.000055
651.000000, 0.000039
652.000000, 0.000098
653.000000, 0.000103
654.000000, 0.000131
655.000000, 0.000013
656.000000, 0.000010
657.000000, 0.000044
658.000000, 0.000087
659.000000, 0.000063
660.000000, 0.000121
661.000000, 0.000193
662.000000, 0.000090
663.000000, 0.000119
664.000000, 0.000034
665.000000, 0.000043
666.000000, 0.000020
667.000000, 0.000362
668.000000, 0.000096
669.000000, 0.000230
670.000000, 0.000179
671.000000, 0.000083
672.000000, 0.000032
673.000000, 0.000131
674.000000, 0.000178
675.000000, 0.000247
676.000000, 0.000273
677.000000, 0.000152
678.000000, 0.000049
679.000000, 0.000289
680.000000, 0.000173
681.000000, 0.000095
682.000000, 0.000130
683.000000, 0.000146
684.000000, 0.000102
685.000000, 0.000002
686.000000, 0.000373
687.000000, 0.000305
688.000000, 0.000006
689.000000, 0.000464
690.000000, 0.000212
691.000000, 0.000270
692.000000, 0.000316
693.000000, 0.000123
694.000000, 0.000063
695.000000, 0.000318
696.000000, 0.000206
697.000000, 0.000164
698.000000, 0.000198
699.000000, 0.000093
700.000000, 0.000232
701.000000, 0.000030
702.000000, 0.000123
703.000000, 0.000114
704.000000, 0.000086
705.000000, 0.000214
706.000000, 0.000341
707.000000, 0.000299
708.000000, 0.000390
709.000000, 0.000387
710.000000, 0.000250
711.000000, 0.000273
712.000000, 0.000236
713.000000, 0.000382
714.000000, 0.000163
715.000000, 0.000059
716.000000, 0.000539
717.000000, 0.000246
718.000000, 0.000299
719.000000, 0.000114
720.000000, 0.000495
721.000000, 0.000006
722.000000, 0.000390
723.000000, 0.000141
724.000000, 0.000351
725.000000, 0.000201
726.000000, 0.000266
727.000000, 0.000071
728.000000, 0.000390
729.000000, 0.000376
730.000000, 0.000626
731.000000, 0.000127
732.000000, 0.000590
733.000000, 0.000353
734.000000, 0.000413
735.000000, 0.000006
736.000000, 0.000746
737.000000, 0.000504
738.000000, 0.000546
739.000000, 0.000306
740.000000, 0.000349
741.000000, 0.000716
742.000000, 0.000422
743.000000, 0.000297
744.000000, 0.000203
745.000000, 0.000717
746.000000, 0.000401
747.000000, 0.000435
748.000000, 0.000553
749.000000, 0.000055
750.000000, 0.000888
751.000000, 0.000037
752.000000, 0.000447
753.000000, 0.000084
754.000000, 0.000938
755.000000, 0.000570
756.000000, 0.000467
757.000000, 0.000506
758.000000, 0.000130
759.000000, 0.000628
760.000000, 0.000541
761.000000, 0.000491
762.000000, 0.000083
763.000000, 0.000500
764.000000, 0.000382
765.000000, 0.000438
766.000000, 0.000407
767.000000, 0.000126
768.000000, 0.000604
769.000000, 0.000500
770.000000, 0.000625
771.000000, 0.000619
772.000000, 0.000080
773.000000, 0.000803
774.000000, 0.000420
775.000000, 0.000430
776.000000, 0.000351
777.000000, 0.000040
778.000000, 0.000828
779.000000, 0.000598
780.000000, 0.000546
781.000000, 0.000267
782.000000, 0.000070
783.000000, 0.000720
784.000000, 0.000699
785.000000, 0.000495
786.000000, 0.000258
787.000000, 0.000178
788.000000, 0.000818
789.000000, 0.000654
790.000000, 0.000608
791.000000, 0.000600
792.000000, 0.000292
793.000000, 0.000929
794.000000, 0.000451
795.000000, 0.000727
796.000000, 0.000460
797.000000, 0.000105
798.000000, 0.000634
799.000000, 0.000426
800.000000, 0.000661
801.000000, 0.000485
802.000000, 0.000686
803.000000, 0.000502
804.000000, 0.000177
805.000000, 0.000513
806.000000, 0.000486
807.000000, 0.000543
808.000000, 0.000261
809.000000, 0.000202
810.000000, 0.000485
811.000000, 0.000366
812.000000, 0.000262
813.000000, 0.000566
814.000000, 0.000361
815.000000, 0.000598
816.000000, 0.000470
817.000000, 0.000326
818.000000, 0.000857
819.000000, 0.000625
820.000000, 0.000856
821.000000, 0.000378
822.000000, 0.000761
823.000000, 0.000306
824.000000, 0.000186
825.000000, 0.000778
826.000000, 0.000348
827.000000, 0.000512
828.000000, 0.000668
829.000000, 0.000010
830.000000, 0.000673
831.000000, 0.000538
832.000000, 0.000205
833.000000, 0.000043
834.000000, 0.000469
835.000000, 0.000510
836.000000, 0.000964
837.000000, 0.000326
838.000000, 0.000748
839.000000, 0.000752
840.000000, 0.000415
841.000000, 0.000290
842.000000, 0.000825
843.000000, 0.000663
844.000000, 0.000252
845.000000, 0.000753
846.000000, 0.000806
847.000000, 0.000575
848.000000, 0.000574
849.000000, 0.000516
850.000000, 0.000871
851.000000, 0.000999
852.000000, 0.000425
853.000000, 0.000106
854.000000, 0.000399
855.000000, 0.000577
856.000000, 0.000007
857.000000, 0.000385
858.000000, 0.000171
859.000000, 0.000552
860.000000, 0.000625
861.000000, 0.000332
862.000000, 0.000812
863.000000, 0.000007
864.000000, 0.000792
865.000000, 0.000343
866.000000, 0.000351
867.000000, 0.000731
868.000000, 0.000192
869.000000, 0.000922
870.000000, 0.000022
871.000000, 0.000274
872.000000, 0.000054
873.000000, 0.000570
874.000000, 0.000040
875.000000, 0.000620
876.000000, 0.000221
877.000000, 0.000348
878.000000, 0.000673
879.000000, 0.000366
880.000000, 0.000129
881.000000, 0.000631
882.000000, 0.000171
883.000000, 0.000753
884.000000, 0.000321
885.000000, 0.000187
886.000000, 0.000880
887.000000, 0.000832
888.000000, 0.000728
889.000000, 0.000302
890.000000, 0.000313
891.000000, 0.000306
892.000000, 0.000396
893.000000, 0.000001
894.000000, 0.000022
895.000000, 0.000549
896.000000, 0.000619
897.000000, 0.000501
898.000000, 0.000736
899.000000, 0.000404
900.000000, 0.000510
901.000000, 0.000230
902.000000, 0.000028
903.000000, 0.000106
904.000000, 0.000331
905.000000, 0.000981
906.000000, 0.000928
907.000000, 0.000035
908.000000, 0.000096
909.000000, 0.000836
910.000000, 0.000787
911.000000, 0.000729
912.000000, 0.000596
913.000000, 0.000489
914.000000, 0.000365
915.000000, 0.000498
916.000000, 0.000407
917.000000, 0.000355
918.000000, 0.000243
919.000000, 0.000354
920.000000, 0.000267
921.000000, 0.000950
922.000000, 0.000162
923.000000, 0.000014
924.000000, 0.000011
925.000000, 0.000861
926.000000, 0.000869
927.000000, 0.000992
928.000000, 0.000118
929.000000, 0.000697
930.000000, 0.000789
931.000000, 0.000867
932.000000, 0.000640
933.000000, 0.000640
934.000000, 0.000601
935.000000, 0.000585
936.000000, 0.000555
937.000000, 0.000603
938.000000, 0.000545
939.000000, 0.000447
940.000000, 0.000398
941.000000, 0.000396
942.000000, 0.000531
943.000000, 0.000502
944.000000, 0.000420
945.000000, 0.000450
946.000000, 0.000330
947.000000, 0.000372
948.000000, 0.000396
949.000000, 0.000476
950.000000, 0.000571
951.000000, 0.000398
952.000000, 0.000485
953.000000, 0.000337
954.000000, 0.000460
955.000000, 0.000296
956.000000, 0.000445
957.000000, 0.000290
958.000000, 0.000419
959.000000, 0.000354
960.000000, 0.000454
961.000000, 0.000372
962.000000, 0.000398
963.000000, 0.000382
964.000000, 0.000476
965.000000, 0.000627
966.000000, 0.000777
967.000000, 0.000816
968.000000, 0.000017
969.000000, 0.000171
970.000000, 0.000503
971.000000, 0.000699
972.000000, 0.000116
973.000000, 0.000383
974.000000, 0.000703
975.000000, 0.000147
976.000000, 0.000615
977.000000, 0.000034
978.000000, 0.000744
979.000000, 0.000437
980.000000, 0.000334
981.000000, 0.000960
982.000000, 0.000002
983.000000, 0.000854
984.000000, 0.000714
985.000000, 0.000228
986.000000, 0.000244
987.000000, 0.000532
988.000000, 0.000863
989.000000, 0.000683
990.000000, 0.000864
991.000000, 0.000171
992.000000, 0.000969
993.000000, 0.000697
994.000000, 0.000671
995.000000, 0.000850
996.000000, 0.001200
997.000000, 0.041680
998.000000, 0.046120
999.000000, 0.064250
1000.000000, 0.121270
1001.000000, 0.535180
1002.000000, 3.780120
1003.000000, 13.750880
1004.000000, 30.782210
1005.000000, 52.822530
1006.000000, 71.446420
1007.000000, 83.503900
1008.000000, 90.069150
1009.000000, 93.187140
1010.000000, 95.336980
1011.000000, 96.306340
1012.000000, 96.709180
1013.000000, 97.085560
1014.000000, 97.456440
1015.000000, 97.777210
1016.000000, 98.069990
1017.000000, 98.245830
1018.000000, 98.153720
1019.000000, 97.793110
1020.000000, 97.317470
1021.000000, 96.978830
1022.000000, 96.931140
1023.000000, 97.189320
1024.000000, 97.581860
1025.000000, 97.898030
1026.000000, 98.002420
1027.000000, 97.913620
1028.000000, 97.734380
1029.000000, 97.598340
1030.000000, 97.591140
1031.000000, 97.738760
1032.000000, 97.952740
1033.000000, 98.159000
1034.000000, 98.278310
1035.000000, 98.295040
1036.000000, 98.225820
1037.000000, 98.141560
1038.000000, 98.100840
1039.000000, 98.137520
1040.000000, 98.233920
1041.000000, 98.366990
1042.000000, 98.500780
1043.000000, 98.604440
1044.000000, 98.656610
1045.000000, 98.646680
1046.000000, 98.601200
1047.000000, 98.512500
1048.000000, 98.419130
1049.000000, 98.293290
1050.000000, 98.152940
1051.000000, 98.030350
1052.000000, 97.915990
1053.000000, 97.828170
1054.000000, 97.793480
1055.000000, 97.820860
1056.000000, 97.908110
1057.000000, 98.026080
1058.000000, 98.154750
1059.000000, 98.243340
1060.000000, 98.256250
1061.000000, 98.189840
1062.000000, 98.049420
1063.000000, 97.839230
1064.000000, 97.635830
1065.000000, 97.475490
1066.000000, 97.383510
1067.000000, 97.404350
1068.000000, 97.530380
1069.000000, 97.715820
1070.000000, 97.915460
1071.000000, 98.119660
1072.000000, 98.246670
1073.000000, 98.281820
1074.000000, 98.225750
1075.000000, 98.096290
1076.000000, 97.916080
1077.000000, 97.759340
1078.000000, 97.643650
1079.000000, 97.586380
1080.000000, 97.617380
1081.000000, 97.705360
1082.000000, 97.859070
1083.000000, 98.020320
1084.000000, 98.140420
1085.000000, 98.232610
1086.000000, 98.248370
1087.000000, 98.211300
1088.000000, 98.119150
1089.000000, 98.009320
1090.000000, 97.902440
1091.000000, 97.814450
1092.000000, 97.749340
1093.000000, 97.749790
1094.000000, 97.763410
1095.000000, 97.804960
1096.000000, 97.855770
1097.000000, 97.903840
