# Wavelength  (nm), Transmission (%)
200.000000, 0.004805
201.000000, 0.004735
202.000000, 0.004632
203.000000, 0.004587
204.000000, 0.004481
205.000000, 0.004370
206.000000, 0.004256
207.000000, 0.004202
208.000000, 0.004092
209.000000, 0.004010
210.000000, 0.003932
211.000000, 0.003811
212.000000, 0.003751
213.000000, 0.003644
214.000000, 0.003583
215.000000, 0.003545
216.000000, 0.003554
217.000000, 0.003476
218.000000, 0.003447
219.000000, 0.003412
220.000000, 0.003393
221.000000, 0.003384
222.000000, 0.003362
223.000000, 0.003346
224.000000, 0.003343
225.000000, 0.003287
226.000000, 0.003328
227.000000, 0.003282
228.000000, 0.003238
229.000000, 0.003239
230.000000, 0.003230
231.000000, 0.003185
232.000000, 0.003150
233.000000, 0.003121
234.000000, 0.003113
235.000000, 0.003062
236.000000, 0.003042
237.000000, 0.003000
238.000000, 0.002993
239.000000, 0.002909
240.000000, 0.002870
241.000000, 0.002850
242.000000, 0.002872
243.000000, 0.002831
244.000000, 0.002766
245.000000, 0.002791
246.000000, 0.002762
247.000000, 0.002756
248.000000, 0.002728
249.000000, 0.002725
250.000000, 0.002726
251.000000, 0.002658
252.000000, 0.002684
253.000000, 0.002677
254.000000, 0.002652
255.000000, 0.002676
256.000000, 0.002661
257.000000, 0.002619
258.000000, 0.002622
259.000000, 0.002619
260.000000, 0.002575
261.000000, 0.002555
262.000000, 0.002547
263.000000, 0.002497
264.000000, 0.002526
265.000000, 0.002446
266.000000, 0.002427
267.000000, 0.002422
268.000000, 0.002408
269.000000, 0.002399
270.000000, 0.002365
271.000000, 0.002320
272.000000, 0.002299
273.000000, 0.002300
274.000000, 0.002236
275.000000, 0.002222
276.000000, 0.002190
277.000000, 0.002189
278.000000, 0.002138
279.000000, 0.002139
280.000000, 0.002122
281.000000, 0.002091
282.000000, 0.002046
283.000000, 0.002006
284.000000, 0.002010
285.000000, 0.001952
286.000000, 0.001902
287.000000, 0.001891
288.000000, 0.001827
289.000000, 0.001802
290.000000, 0.001737
291.000000, 0.001692
292.000000, 0.001648
293.000000, 0.001628
294.000000, 0.001592
295.000000, 0.001447
296.000000, 0.001446
297.000000, 0.001372
298.000000, 0.001314
299.000000, 0.001283
300.000000, 0.001176
301.000000, 0.001150
302.000000, 0.001061
303.000000, 0.001031
304.000000, 0.000990
305.000000, 0.000928
306.000000, 0.000872
307.000000, 0.000812
308.000000, 0.000772
309.000000, 0.000721
310.000000, 0.000659
311.000000, 0.000596
312.000000, 0.000529
313.000000, 0.000523
314.000000, 0.000505
315.000000, 0.000439
316.000000, 0.000409
317.000000, 0.000382
318.000000, 0.000355
319.000000, 0.000323
320.000000, 0.000305
321.000000, 0.000276
322.000000, 0.000250
323.000000, 0.000241
324.000000, 0.000249
325.000000, 0.000207
326.000000, 0.000191
327.000000, 0.000164
328.000000, 0.000179
329.000000, 0.000146
330.000000, 0.000147
331.000000, 0.000136
332.000000, 0.000132
333.000000, 0.000112
334.000000, 0.000109
335.000000, 0.000111
336.000000, 0.000091
337.000000, 0.000103
338.000000, 0.000084
339.000000, 0.000074
340.000000, 0.000086
341.000000, 0.000069
342.000000, 0.000093
343.000000, 0.000085
344.000000, 0.000078
345.000000, 0.000053
346.000000, 0.000068
347.000000, 0.000033
348.000000, 0.000090
349.000000, -0.000076
350.000000, 0.000085
351.000000, 0.000085
352.000000, 0.000086
353.000000, 0.000069
354.000000, 0.000082
355.000000, 0.000061
356.000000, 0.000085
357.000000, 0.000068
358.000000, 0.000066
359.000000, 0.000072
360.000000, 0.000049
361.000000, 0.000063
362.000000, 0.000079
363.000000, 0.000060
364.000000, 0.000077
365.000000, 0.000073
366.000000, 0.000077
367.000000, 0.000062
368.000000, 0.000068
369.000000, 0.000067
370.000000, 0.000067
371.000000, 0.000063
372.000000, 0.000056
373.000000, 0.000068
374.000000, 0.000064
375.000000, 0.000076
376.000000, 0.000066
377.000000, 0.000056
378.000000, 0.000062
379.000000, 0.000067
380.000000, 0.000068
381.000000, 0.000066
382.000000, 0.000066
383.000000, 0.000056
384.000000, 0.000071
385.000000, 0.000067
386.000000, 0.000068
387.000000, 0.000061
388.000000, 0.000067
389.000000, 0.000056
390.000000, 0.000067
391.000000, 0.000062
392.000000, 0.000068
393.000000, 0.000067
394.000000, 0.000056
395.000000, 0.000060
396.000000, 0.000066
397.000000, 0.000070
398.000000, 0.000065
399.000000, 0.000056
400.000000, 0.000065
401.000000, 0.000073
402.000000, 0.000062
403.000000, 0.000065
404.000000, 0.000068
405.000000, 0.000057
406.000000, 0.000062
407.000000, 0.000060
408.000000, 0.000060
409.000000, 0.000055
410.000000, 0.000061
411.000000, 0.000062
412.000000, 0.000058
413.000000, 0.000059
414.000000, 0.000064
415.000000, 0.000061
416.000000, 0.000066
417.000000, 0.000061
418.000000, 0.000062
419.000000, 0.000066
420.000000, 0.000056
421.000000, 0.000068
422.000000, 0.000061
423.000000, 0.000059
424.000000, 0.000045
425.000000, 0.000061
426.000000, 0.000066
427.000000, 0.000050
428.000000, 0.000060
429.000000, 0.000054
430.000000, 0.000063
431.000000, 0.000045
432.000000, 0.000055
433.000000, 0.000064
434.000000, 0.000055
435.000000, 0.000048
436.000000, 0.000051
437.000000, 0.000051
438.000000, 0.000048
439.000000, 0.000052
440.000000, 0.000048
441.000000, 0.000034
442.000000, 0.000048
443.000000, 0.000047
444.000000, 0.000046
445.000000, 0.000048
446.000000, 0.000051
447.000000, 0.000046
448.000000, 0.000040
449.000000, 0.000045
450.000000, 0.000045
451.000000, 0.000051
452.000000, 0.000044
453.000000, 0.000049
454.000000, 0.000042
455.000000, 0.000042
456.000000, 0.000042
457.000000, 0.000044
458.000000, 0.000044
459.000000, 0.000052
460.000000, 0.000043
461.000000, 0.000039
462.000000, 0.000052
463.000000, 0.000052
464.000000, 0.000047
465.000000, 0.000046
466.000000, 0.000039
467.000000, 0.000051
468.000000, 0.000046
469.000000, 0.000048
470.000000, 0.000047
471.000000, 0.000045
472.000000, 0.000050
473.000000, 0.000055
474.000000, 0.000054
475.000000, 0.000052
476.000000, 0.000061
477.000000, 0.000058
478.000000, 0.000064
479.000000, 0.000060
480.000000, 0.000068
481.000000, 0.000074
482.000000, 0.000078
483.000000, 0.000092
484.000000, 0.000113
485.000000, 0.000153
486.000000, 0.000212
487.000000, 0.000335
488.000000, 0.000549
489.000000, 0.000949
490.000000, 0.001689
491.000000, 0.003181
492.000000, 0.006272
493.000000, 0.012893
494.000000, 0.027744
495.000000, 0.063046
496.000000, 0.153489
497.000000, 0.411048
498.000000, 1.224063
499.000000, 4.051175
500.000000, 13.643089
501.000000, 35.364967
502.000000, 63.069057
503.000000, 80.833458
504.000000, 85.491219
505.000000, 86.128586
506.000000, 86.695503
507.000000, 86.525337
508.000000, 85.385056
509.000000, 84.052788
510.000000, 83.391151
511.000000, 83.731140
512.000000, 84.914299
513.000000, 86.428757
514.000000, 87.718216
515.000000, 88.510979
516.000000, 88.812706
517.000000, 88.562622
518.000000, 88.159309
519.000000, 87.743149
520.000000, 87.514160
521.000000, 87.490051
522.000000, 87.646271
523.000000, 87.893867
524.000000, 88.131424
525.000000, 88.304337
526.000000, 88.382431
527.000000, 88.337860
528.000000, 88.208923
529.000000, 88.158646
530.000000, 88.168327
531.000000, 88.218552
532.000000, 88.372459
533.000000, 88.566925
534.000000, 88.790970
535.000000, 88.999519
536.000000, 89.107925
537.000000, 88.986534
538.000000, 88.756599
539.000000, 88.327446
540.000000, 87.742882
541.000000, 87.103638
542.000000, 86.465164
543.000000, 85.858620
544.000000, 85.452705
545.000000, 85.164581
546.000000, 85.056160
547.000000, 85.199142
548.000000, 85.578247
549.000000, 86.115906
550.000000, 86.785088
551.000000, 87.496178
552.000000, 88.248177
553.000000, 88.868538
554.000000, 89.344177
555.000000, 89.714005
556.000000, 89.793091
557.000000, 89.661407
558.000000, 89.317245
559.000000, 88.719307
560.000000, 88.087250
561.000000, 87.428543
562.000000, 86.698219
563.000000, 86.081627
564.000000, 85.540863
565.000000, 85.199150
566.000000, 84.973640
567.000000, 84.969208
568.000000, 85.127960
569.000000, 85.466385
570.000000, 85.935638
571.000000, 86.532860
572.000000, 87.205727
573.000000, 87.899216
574.000000, 88.572983
575.000000, 89.147987
576.000000, 89.645233
577.000000, 89.977280
578.000000, 90.120171
579.000000, 90.160248
580.000000, 89.961449
581.000000, 89.636436
582.000000, 89.176361
583.000000, 88.669991
584.000000, 88.093933
585.000000, 87.504967
586.000000, 86.951019
587.000000, 86.471748
588.000000, 86.107788
589.000000, 85.800232
590.000000, 85.605988
591.000000, 85.588554
592.000000, 85.627121
593.000000, 85.886734
594.000000, 86.159668
595.000000, 86.567245
596.000000, 86.991814
597.000000, 87.504074
598.000000, 88.073860
599.000000, 88.565132
600.000000, 89.064865
601.000000, 89.453224
602.000000, 89.751846
603.000000, 90.007492
604.000000, 90.136696
605.000000, 90.189239
606.000000, 90.125977
607.000000, 89.976952
608.000000, 89.718140
609.000000, 89.420387
610.000000, 89.082047
611.000000, 88.746658
612.000000, 88.355736
613.000000, 87.974648
614.000000, 87.688026
615.000000, 87.428757
616.000000, 87.185875
617.000000, 87.003693
618.000000, 86.921196
619.000000, 86.880623
620.000000, 86.957718
621.000000, 87.066925
622.000000, 87.251297
623.000000, 87.441612
624.000000, 87.713242
625.000000, 87.999596
626.000000, 88.312622
627.000000, 88.616959
628.000000, 88.922684
629.000000, 89.186050
630.000000, 89.463165
631.000000, 89.690758
632.000000, 89.847801
633.000000, 89.965096
634.000000, 90.063377
635.000000, 90.070503
636.000000, 90.012886
637.000000, 89.933273
638.000000, 89.843826
639.000000, 89.728554
640.000000, 89.549080
641.000000, 89.346603
642.000000, 89.167419
643.000000, 88.979630
644.000000, 88.833069
645.000000, 88.641617
646.000000, 88.503250
647.000000, 88.407478
648.000000, 88.315018
649.000000, 88.259865
650.000000, 88.237984
651.000000, 88.281502
652.000000, 88.309959
653.000000, 88.362015
654.000000, 88.455978
655.000000, 88.571060
656.000000, 88.696121
657.000000, 88.837975
658.000000, 89.005310
659.000000, 89.145439
660.000000, 89.284744
661.000000, 89.442184
662.000000, 89.571877
663.000000, 89.669052
664.000000, 89.749924
665.000000, 89.840195
666.000000, 89.864738
667.000000, 89.902672
668.000000, 89.882111
669.000000, 89.878716
670.000000, 89.834450
671.000000, 89.798164
672.000000, 89.720154
673.000000, 89.651299
674.000000, 89.578812
675.000000, 89.511009
676.000000, 89.424477
677.000000, 89.338478
678.000000, 89.256165
679.000000, 89.188911
680.000000, 89.123680
681.000000, 89.084183
682.000000, 89.071091
683.000000, 89.073021
684.000000, 89.038528
685.000000, 89.026253
686.000000, 89.039162
687.000000, 89.087006
688.000000, 89.099579
689.000000, 89.155418
690.000000, 89.187744
691.000000, 89.269661
692.000000, 89.350639
693.000000, 89.387032
694.000000, 89.429161
695.000000, 89.447906
696.000000, 89.527313
697.000000, 89.509872
698.000000, 89.548454
699.000000, 89.571037
700.000000, 89.538826
701.000000, 89.534782
702.000000, 89.496696
703.000000, 89.436859
704.000000, 89.400009
705.000000, 89.330933
706.000000, 89.260765
707.000000, 89.130516
708.000000, 89.054604
709.000000, 89.007156
710.000000, 88.882942
711.000000, 88.774162
712.000000, 88.715454
713.000000, 88.610970
714.000000, 88.512321
715.000000, 88.480133
716.000000, 88.383224
717.000000, 88.322128
718.000000, 88.310509
719.000000, 88.272087
720.000000, 88.241920
721.000000, 88.259216
722.000000, 88.276237
723.000000, 88.293526
724.000000, 88.322273
725.000000, 88.345871
726.000000, 88.461723
727.000000, 88.476692
728.000000, 88.577576
729.000000, 88.668892
730.000000, 88.752602
731.000000, 88.844086
732.000000, 88.849251
733.000000, 88.965347
734.000000, 89.065651
735.000000, 89.135971
736.000000, 89.198753
737.000000, 89.239433
738.000000, 89.251724
739.000000, 89.289612
740.000000, 89.302544
741.000000, 89.275208
742.000000, 89.294518
743.000000, 89.270065
744.000000, 89.213089
745.000000, 89.155792
746.000000, 89.077858
747.000000, 89.061066
748.000000, 88.920700
749.000000, 88.849792
750.000000, 88.648720
751.000000, 88.606255
752.000000, 88.470551
753.000000, 88.382790
754.000000, 88.207153
755.000000, 88.119087
756.000000, 88.042595
757.000000, 87.905777
758.000000, 87.787895
759.000000, 87.657692
760.000000, 87.596542
761.000000, 87.551735
762.000000, 87.442421
763.000000, 87.409798
764.000000, 87.358948
765.000000, 87.326134
766.000000, 87.314545
767.000000, 87.291550
768.000000, 87.294579
769.000000, 87.304672
770.000000, 87.339859
771.000000, 87.411514
772.000000, 87.429832
773.000000, 87.475380
774.000000, 87.512939
775.000000, 87.645241
776.000000, 87.693031
777.000000, 87.790558
778.000000, 87.807510
779.000000, 87.935638
780.000000, 88.056038
781.000000, 88.171768
782.000000, 88.207565
783.000000, 88.267746
784.000000, 88.326866
785.000000, 88.453743
786.000000, 88.527008
787.000000, 88.534508
788.000000, 88.565086
789.000000, 88.672028
790.000000, 88.650307
791.000000, 88.649673
792.000000, 88.629089
793.000000, 88.699593
794.000000, 88.635582
795.000000, 88.586449
796.000000, 88.513908
797.000000, 88.512138
798.000000, 88.370972
799.000000, 88.275742
800.000000, 87.667160
801.000000, 87.633881
802.000000, 87.561104
803.000000, 87.425087
804.000000, 87.332252
805.000000, 87.251213
806.000000, 87.198730
807.000000, 87.122650
808.000000, 87.017944
809.000000, 86.873245
810.000000, 86.778206
811.000000, 86.708618
812.000000, 86.595093
813.000000, 86.620743
814.000000, 86.504021
815.000000, 86.416367
816.000000, 86.420593
817.000000, 86.473045
818.000000, 86.306206
819.000000, 86.329254
820.000000, 86.239532
821.000000, 86.309593
822.000000, 86.230164
823.000000, 86.237572
824.000000, 86.367157
825.000000, 86.344276
826.000000, 86.416283
827.000000, 86.514023
828.000000, 86.440163
829.000000, 86.488815
830.000000, 86.656586
831.000000, 86.701996
832.000000, 86.740395
833.000000, 86.773071
834.000000, 86.950409
835.000000, 86.853966
836.000000, 86.936775
837.000000, 87.225616
838.000000, 87.090614
839.000000, 87.207184
840.000000, 87.456749
841.000000, 87.425629
842.000000, 87.436852
843.000000, 87.483971
844.000000, 87.525330
845.000000, 87.661331
846.000000, 87.780083
847.000000, 87.760231
848.000000, 87.735191
849.000000, 87.812950
850.000000, 87.810776
851.000000, 87.781837
852.000000, 87.754257
853.000000, 87.703995
854.000000, 87.718842
855.000000, 87.728104
856.000000, 87.655647
857.000000, 87.503487
858.000000, 87.565216
859.000000, 87.449387
860.000000, 87.401726
861.000000, 87.434464
862.000000, 87.218147
863.000000, 87.266052
864.000000, 87.181541
865.000000, 86.997490
866.000000, 86.989189
867.000000, 86.747566
868.000000, 86.737320
869.000000, 86.653458
870.000000, 86.459877
871.000000, 86.525101
872.000000, 86.466301
873.000000, 86.256012
874.000000, 86.182495
875.000000, 86.210014
876.000000, 86.091393
877.000000, 86.072922
878.000000, 85.952606
879.000000, 85.925545
880.000000, 85.805061
881.000000, 85.771217
882.000000, 85.734306
883.000000, 85.747231
884.000000, 85.697700
885.000000, 85.733154
886.000000, 85.672066
887.000000, 85.712326
888.000000, 85.642059
889.000000, 85.683075
890.000000, 85.722992
891.000000, 85.708046
892.000000, 85.731171
893.000000, 85.893669
894.000000, 85.910568
895.000000, 85.791145
896.000000, 85.882309
897.000000, 85.994751
898.000000, 85.985687
899.000000, 86.078934
900.000000, 86.185410
901.000000, 86.269989
902.000000, 86.237160
903.000000, 86.351082
904.000000, 86.421120
905.000000, 86.400734
906.000000, 86.493614
907.000000, 86.620621
908.000000, 86.647156
909.000000, 86.706123
910.000000, 86.703735
911.000000, 86.779030
912.000000, 86.844467
913.000000, 87.004349
914.000000, 86.954536
915.000000, 86.936768
916.000000, 87.145493
917.000000, 86.938538
918.000000, 87.151947
919.000000, 87.034019
920.000000, 87.274696
921.000000, 87.189156
922.000000, 87.258018
923.000000, 87.136421
924.000000, 87.187042
925.000000, 87.223404
926.000000, 87.235107
927.000000, 87.296936
928.000000, 87.181320
929.000000, 87.242523
930.000000, 87.192863
931.000000, 87.079773
932.000000, 87.103073
933.000000, 87.046410
934.000000, 87.139549
935.000000, 87.009277
936.000000, 86.891632
937.000000, 86.888962
938.000000, 86.852364
939.000000, 86.824722
940.000000, 86.740402
941.000000, 86.553864
942.000000, 86.605713
943.000000, 86.606918
944.000000, 86.530312
945.000000, 86.498558
946.000000, 86.428795
947.000000, 86.401848
948.000000, 86.347992
949.000000, 86.177200
950.000000, 86.246353
951.000000, 86.196579
952.000000, 86.118484
953.000000, 86.038414
954.000000, 86.072960
955.000000, 86.008125
956.000000, 85.950180
957.000000, 85.955597
958.000000, 85.964943
959.000000, 85.944839
960.000000, 85.982285
961.000000, 85.932220
962.000000, 85.953018
963.000000, 85.972778
964.000000, 85.795357
965.000000, 85.887009
966.000000, 85.964172
967.000000, 85.943283
968.000000, 85.902763
969.000000, 85.936447
970.000000, 85.893990
971.000000, 85.955360
972.000000, 85.946358
973.000000, 86.022774
974.000000, 86.040588
975.000000, 86.108780
976.000000, 86.149544
977.000000, 86.107704
978.000000, 86.108551
979.000000, 86.202774
980.000000, 86.257935
981.000000, 86.317635
982.000000, 86.208138
983.000000, 86.257210
984.000000, 86.449203
985.000000, 86.449883
986.000000, 86.524986
987.000000, 86.550659
988.000000, 86.557648
989.000000, 86.558830
990.000000, 86.614754
991.000000, 86.634453
992.000000, 86.582687
993.000000, 86.731644
994.000000, 86.710701
995.000000, 86.802689
996.000000, 86.825569
997.000000, 86.852386
998.000000, 86.797226
999.000000, 86.851921
1000.000000, 86.812469
1001.000000, 86.821053
1002.000000, 86.873222
1003.000000, 86.753998
1004.000000, 86.940651
1005.000000, 86.941246
1006.000000, 86.849770
1007.000000, 86.896439
1008.000000, 86.927544
1009.000000, 86.840126
1010.000000, 86.822662
1011.000000, 86.798943
1012.000000, 86.729927
1013.000000, 86.799416
1014.000000, 86.769943
1015.000000, 86.690178
1016.000000, 86.730469
1017.000000, 86.593231
1018.000000, 86.618118
1019.000000, 86.622665
1020.000000, 86.611954
1021.000000, 86.578758
1022.000000, 86.521492
1023.000000, 86.493797
1024.000000, 86.359200
1025.000000, 86.445938
1026.000000, 86.427750
1027.000000, 86.249527
1028.000000, 86.258171
1029.000000, 86.225502
1030.000000, 86.200905
1031.000000, 86.222084
1032.000000, 86.175392
1033.000000, 86.119499
1034.000000, 86.084503
1035.000000, 86.093979
1036.000000, 85.935501
1037.000000, 85.926834
1038.000000, 85.961159
1039.000000, 85.903488
1040.000000, 85.891640
1041.000000, 85.841026
1042.000000, 85.857765
1043.000000, 85.798042
1044.000000, 85.795753
1045.000000, 85.746162
1046.000000, 85.759659
1047.000000, 85.684029
1048.000000, 85.703621
1049.000000, 85.712723
1050.000000, 85.696068
1051.000000, 85.663971
1052.000000, 85.686996
1053.000000, 85.603317
1054.000000, 85.614601
1055.000000, 85.670799
1056.000000, 85.628220
1057.000000, 85.627052
1058.000000, 85.646797
1059.000000, 85.625381
1060.000000, 85.698624
1061.000000, 85.741440
1062.000000, 85.666100
1063.000000, 85.738434
1064.000000, 85.709885
1065.000000, 85.725754
1066.000000, 85.911949
1067.000000, 85.737320
1068.000000, 85.768875
1069.000000, 85.873337
1070.000000, 85.769188
1071.000000, 85.946968
1072.000000, 85.962555
1073.000000, 85.906616
1074.000000, 85.944244
1075.000000, 85.957565
1076.000000, 86.099869
