# Wavelength  (nm), Transmission (%)
200.000000, 0.000261
201.000000, 0.000311
202.000000, 0.000008
203.000000, 0.000013
204.000000, 0.000104
205.000000, 0.000190
206.000000, 0.000195
207.000000, 0.000101
208.000000, 0.000033
209.000000, 0.000365
210.000000, 0.000283
211.000000, 0.000319
212.000000, 0.000198
213.000000, 0.000428
214.000000, 0.000078
215.000000, 0.000273
216.000000, 0.000136
217.000000, 0.000335
218.000000, 0.000346
219.000000, 0.000269
220.000000, 0.000362
221.000000, 0.000122
222.000000, 0.000364
223.000000, 0.000193
224.000000, 0.000212
225.000000, 0.000351
226.000000, 0.000192
227.000000, 0.000235
228.000000, 0.000320
229.000000, 0.000126
230.000000, 0.000280
231.000000, 0.000186
232.000000, 0.000245
233.000000, 0.000226
234.000000, 0.000294
235.000000, 0.000096
236.000000, 0.000031
237.000000, 0.000204
238.000000, 0.000074
239.000000, 0.000219
240.000000, 0.000122
241.000000, 0.000091
242.000000, 0.000381
243.000000, 0.000230
244.000000, 0.000065
245.000000, 0.000134
246.000000, 0.000049
247.000000, 0.000008
248.000000, 0.000240
249.000000, 0.000054
250.000000, 0.000175
251.000000, 0.000083
252.000000, 0.000183
253.000000, 0.000035
254.000000, 0.000051
255.000000, 0.000047
256.000000, 0.000108
257.000000, 0.000076
258.000000, 0.000051
259.000000, 0.000016
260.000000, 0.000361
261.000000, 0.000031
262.000000, 0.000115
263.000000, 0.000229
264.000000, 0.000088
265.000000, 0.000246
266.000000, 0.000021
267.000000, 0.000021
268.000000, 0.000043
269.000000, 0.000112
270.000000, 0.000302
271.000000, 0.000052
272.000000, 0.000102
273.000000, 0.000023
274.000000, 0.000123
275.000000, 0.000071
276.000000, 0.000020
277.000000, 0.000116
278.000000, 0.000119
279.000000, 0.000100
280.000000, 0.000168
281.000000, 0.000098
282.000000, 0.000059
283.000000, 0.000199
284.000000, 0.000114
285.000000, 0.000004
286.000000, 0.000150
287.000000, 0.000051
288.000000, 0.000049
289.000000, 0.000349
290.000000, 0.000112
291.000000, 0.000215
292.000000, 0.000029
293.000000, 0.000042
294.000000, 0.000174
295.000000, 0.000120
296.000000, 0.000105
297.000000, 0.000060
298.000000, 0.000155
299.000000, 0.000371
300.000000, 0.000038
301.000000, 0.000256
302.000000, 0.000094
303.000000, 0.000040
304.000000, 0.000237
305.000000, 0.000027
306.000000, 0.000025
307.000000, 0.000084
308.000000, 0.000213
309.000000, 0.000066
310.000000, 0.000157
311.000000, 0.000051
312.000000, 0.000076
313.000000, 0.000004
314.000000, 0.000144
315.000000, 0.000066
316.000000, 0.000086
317.000000, 0.000087
318.000000, 0.000077
319.000000, 0.000240
320.000000, 0.000001
321.000000, 0.000008
322.000000, 0.000036
323.000000, 0.000020
324.000000, 0.000392
325.000000, 0.000019
326.000000, 0.000029
327.000000, 0.000028
328.000000, 0.000230
329.000000, 0.000073
330.000000, 0.000026
331.000000, 0.000137
332.000000, 0.000165
333.000000, 0.000136
334.000000, 0.000191
335.000000, 0.000073
336.000000, 0.000313
337.000000, 0.000186
338.000000, 0.000196
339.000000, 0.000075
340.000000, 0.000002
341.000000, 0.000000
342.000000, 0.000027
343.000000, 0.000193
344.000000, 0.000112
345.000000, 0.000021
346.000000, 0.000084
347.000000, 0.000028
348.000000, 0.000115
349.000000, 0.000912
350.000000, 0.000037
351.000000, 0.000023
352.000000, 0.000322
353.000000, 0.000121
354.000000, 0.000297
355.000000, 0.000023
356.000000, 0.000014
357.000000, 0.000311
358.000000, 0.000147
359.000000, 0.000321
360.000000, 0.000075
361.000000, 0.000042
362.000000, 0.000149
363.000000, 0.000042
364.000000, 0.000163
365.000000, 0.000138
366.000000, 0.000387
367.000000, 0.000578
368.000000, 0.000375
369.000000, 0.000784
370.000000, 0.001090
371.000000, 0.001120
372.000000, 0.000967
373.000000, 0.001370
374.000000, 0.001830
375.000000, 0.001850
376.000000, 0.002000
377.000000, 0.002030
378.000000, 0.002370
379.000000, 0.002430
380.000000, 0.002810
381.000000, 0.002710
382.000000, 0.002880
383.000000, 0.003410
384.000000, 0.003740
385.000000, 0.004260
386.000000, 0.004430
387.000000, 0.003950
388.000000, 0.003290
389.000000, 0.002400
390.000000, 0.001560
391.000000, 0.000953
392.000000, 0.000712
393.000000, 0.000667
394.000000, 0.000371
395.000000, 0.000491
396.000000, 0.000049
397.000000, 0.000282
398.000000, 0.000029
399.000000, 0.000159
400.000000, 0.000032
401.000000, 0.000012
402.000000, 0.000009
403.000000, 0.000223
404.000000, 0.000024
405.000000, 0.000034
406.000000, 0.000238
407.000000, 0.000143
408.000000, 0.000085
409.000000, 0.000038
410.000000, 0.000074
411.000000, 0.000151
412.000000, 0.000341
413.000000, 0.001000
414.000000, 0.002100
415.000000, 0.003100
416.000000, 0.002980
417.000000, 0.001370
418.000000, 0.000809
419.000000, 0.000500
420.000000, 0.000080
421.000000, 0.000216
422.000000, 0.000311
423.000000, 0.001040
424.000000, 0.001650
425.000000, 0.001580
426.000000, 0.000349
427.000000, 0.000005
428.000000, 0.000276
429.000000, 0.000011
430.000000, 0.000007
431.000000, 0.000293
432.000000, 0.000002
433.000000, 0.000356
434.000000, 0.000077
435.000000, 0.000062
436.000000, 0.000281
437.000000, 0.000013
438.000000, 0.000126
439.000000, 0.000225
440.000000, 0.000177
441.000000, 0.000241
442.000000, 0.000220
443.000000, 0.000050
444.000000, 0.000176
445.000000, 0.000023
446.000000, 0.000363
447.000000, 0.000170
448.000000, 0.000028
449.000000, 0.000221
450.000000, 0.000164
451.000000, 0.000027
452.000000, 0.000216
453.000000, 0.000021
454.000000, 0.000117
455.000000, 0.000061
456.000000, 0.000057
457.000000, 0.000096
458.000000, 0.000007
459.000000, 0.000264
460.000000, 0.000102
461.000000, 0.000029
462.000000, 0.000178
463.000000, 0.000022
464.000000, 0.000210
465.000000, 0.000014
466.000000, 0.000062
467.000000, 0.000100
468.000000, 0.000019
469.000000, 0.000012
470.000000, 0.000072
471.000000, 0.000207
472.000000, 0.000133
473.000000, 0.000033
474.000000, 0.000095
475.000000, 0.000242
476.000000, 0.000435
477.000000, 0.000278
478.000000, 0.000499
479.000000, 0.000605
480.000000, 0.000595
481.000000, 0.000950
482.000000, 0.000969
483.000000, 0.000964
484.000000, 0.001190
485.000000, 0.001450
486.000000, 0.001690
487.000000, 0.002060
488.000000, 0.002320
489.000000, 0.003010
490.000000, 0.003790
491.000000, 0.004420
492.000000, 0.005590
493.000000, 0.007120
494.000000, 0.009090
495.000000, 0.011990
496.000000, 0.015680
497.000000, 0.020990
498.000000, 0.028920
499.000000, 0.040780
500.000000, 0.058790
501.000000, 0.086580
502.000000, 0.131520
503.000000, 0.207390
504.000000, 0.340290
505.000000, 0.587450
506.000000, 1.065830
507.000000, 2.087040
508.000000, 4.375290
509.000000, 9.662630
510.000000, 20.844010
511.000000, 38.712400
512.000000, 57.823730
513.000000, 69.789900
514.000000, 73.599170
515.000000, 73.965790
516.000000, 73.753110
517.000000, 73.260380
518.000000, 72.432040
519.000000, 70.714420
520.000000, 65.302250
521.000000, 52.907600
522.000000, 35.351100
523.000000, 19.499610
524.000000, 9.624650
525.000000, 4.675580
526.000000, 2.378830
527.000000, 1.295280
528.000000, 0.745940
529.000000, 0.452450
530.000000, 0.286310
531.000000, 0.188270
532.000000, 0.129010
533.000000, 0.090110
534.000000, 0.064810
535.000000, 0.047550
536.000000, 0.035920
537.000000, 0.027440
538.000000, 0.021330
539.000000, 0.016910
540.000000, 0.013470
541.000000, 0.010800
542.000000, 0.008810
543.000000, 0.007330
544.000000, 0.006170
545.000000, 0.005150
546.000000, 0.004180
547.000000, 0.003720
548.000000, 0.003150
549.000000, 0.002750
550.000000, 0.002360
551.000000, 0.001770
552.000000, 0.001690
553.000000, 0.001580
554.000000, 0.001320
555.000000, 0.001310
556.000000, 0.001100
557.000000, 0.000946
558.000000, 0.000868
559.000000, 0.000754
560.000000, 0.000781
561.000000, 0.000608
562.000000, 0.000644
563.000000, 0.000555
564.000000, 0.000362
565.000000, 0.000333
566.000000, 0.000327
567.000000, 0.000258
568.000000, 0.000298
569.000000, 0.000139
570.000000, 0.000085
571.000000, 0.000157
572.000000, 0.000063
573.000000, 0.000108
574.000000, 0.000085
575.000000, 0.000223
576.000000, 0.000083
577.000000, 0.000107
578.000000, 0.000151
579.000000, 0.000104
580.000000, 0.000203
581.000000, 0.000087
582.000000, 0.000026
583.000000, 0.000219
584.000000, 0.000157
585.000000, 0.000150
586.000000, 0.000348
587.000000, 0.000104
588.000000, 0.000188
589.000000, 0.000367
590.000000, 0.000131
591.000000, 0.000195
592.000000, 0.000320
593.000000, 0.000074
594.000000, 0.000346
595.000000, 0.000355
596.000000, 0.000249
597.000000, 0.000203
598.000000, 0.000342
599.000000, 0.000275
600.000000, 0.000157
601.000000, 0.000251
602.000000, 0.000059
603.000000, 0.000018
604.000000, 0.000259
605.000000, 0.000167
606.000000, 0.000227
607.000000, 0.000105
608.000000, 0.000122
609.000000, 0.000150
610.000000, 0.000039
611.000000, 0.000074
612.000000, 0.000034
613.000000, 0.000240
614.000000, 0.000065
615.000000, 0.000099
616.000000, 0.000099
617.000000, 0.000195
618.000000, 0.000181
619.000000, 0.000282
620.000000, 0.000145
621.000000, 0.000136
622.000000, 0.000084
623.000000, 0.000199
624.000000, 0.000028
625.000000, 0.000067
626.000000, 0.000165
627.000000, 0.000069
628.000000, 0.000009
629.000000, 0.000155
630.000000, 0.000200
631.000000, 0.000022
632.000000, 0.000144
633.000000, 0.000111
634.000000, 0.000200
635.000000, 0.000250
636.000000, 0.000209
637.000000, 0.000190
638.000000, 0.000094
639.000000, 0.000178
640.000000, 0.000016
641.000000, 0.000217
642.000000, 0.000250
643.000000, 0.000148
644.000000, 0.000462
645.000000, 0.000325
646.000000, 0.000116
647.000000, 0.000107
648.000000, 0.000184
649.000000, 0.000140
650.000000, 0.000132
651.000000, 0.000201
652.000000, 0.000145
653.000000, 0.000134
654.000000, 0.000187
655.000000, 0.000115
656.000000, 0.000020
657.000000, 0.000148
658.000000, 0.000182
659.000000, 0.000231
660.000000, 0.000136
661.000000, 0.000062
662.000000, 0.000226
663.000000, 0.000203
664.000000, 0.000100
665.000000, 0.000178
666.000000, 0.000131
667.000000, 0.000101
668.000000, 0.000312
669.000000, 0.000149
670.000000, 0.000148
671.000000, 0.000043
672.000000, 0.000013
673.000000, 0.000072
674.000000, 0.000081
675.000000, 0.000092
676.000000, 0.000112
677.000000, 0.000118
678.000000, 0.000009
679.000000, 0.000167
680.000000, 0.000052
681.000000, 0.000047
682.000000, 0.000032
683.000000, 0.000038
684.000000, 0.000173
685.000000, 0.000006
686.000000, 0.000087
687.000000, 0.000105
688.000000, 0.000144
689.000000, 0.000174
690.000000, 0.000078
691.000000, 0.000106
692.000000, 0.000061
693.000000, 0.000101
694.000000, 0.000061
695.000000, 0.000163
696.000000, 0.000014
697.000000, 0.000170
698.000000, 0.000106
699.000000, 0.000108
700.000000, 0.000146
701.000000, 0.000232
702.000000, 0.000021
703.000000, 0.000004
704.000000, 0.000089
705.000000, 0.000011
706.000000, 0.000178
707.000000, 0.000001
708.000000, 0.000228
709.000000, 0.000050
710.000000, 0.000123
711.000000, 0.000012
712.000000, 0.000072
713.000000, 0.000018
714.000000, 0.000009
715.000000, 0.000158
716.000000, 0.000141
717.000000, 0.000044
718.000000, 0.000014
719.000000, 0.000062
720.000000, 0.000017
721.000000, 0.000183
722.000000, 0.000002
723.000000, 0.000008
724.000000, 0.000164
725.000000, 0.000034
726.000000, 0.000055
727.000000, 0.000149
728.000000, 0.000069
729.000000, 0.000020
730.000000, 0.000229
731.000000, 0.000008
732.000000, 0.000264
733.000000, 0.000230
734.000000, 0.000311
735.000000, 0.000147
736.000000, 0.000030
737.000000, 0.000178
738.000000, 0.000241
739.000000, 0.000101
740.000000, 0.000243
741.000000, 0.000072
742.000000, 0.000216
743.000000, 0.000210
744.000000, 0.000321
745.000000, 0.000016
746.000000, 0.000086
747.000000, 0.000208
748.000000, 0.000169
749.000000, 0.000039
750.000000, 0.000097
751.000000, 0.000235
752.000000, 0.000207
753.000000, 0.000198
754.000000, 0.000080
755.000000, 0.000126
756.000000, 0.000032
757.000000, 0.000028
758.000000, 0.000061
759.000000, 0.000125
760.000000, 0.000233
761.000000, 0.000252
762.000000, 0.000076
763.000000, 0.000117
764.000000, 0.000035
765.000000, 0.000174
766.000000, 0.000056
767.000000, 0.000236
768.000000, 0.000214
769.000000, 0.000178
770.000000, 0.000006
771.000000, 0.000112
772.000000, 0.000333
773.000000, 0.000060
774.000000, 0.000232
775.000000, 0.000055
776.000000, 0.000084
777.000000, 0.000055
778.000000, 0.000279
779.000000, 0.000303
780.000000, 0.000168
781.000000, 0.000138
782.000000, 0.000114
783.000000, 0.000149
784.000000, 0.000242
785.000000, 0.000036
786.000000, 0.000095
787.000000, 0.000123
788.000000, 0.000203
789.000000, 0.000107
790.000000, 0.000107
791.000000, 0.000242
792.000000, 0.000064
793.000000, 0.000101
794.000000, 0.000318
795.000000, 0.000003
796.000000, 0.000260
797.000000, 0.000175
798.000000, 0.000040
799.000000, 0.000111
800.000000, 0.014150
801.000000, 0.014910
802.000000, 0.015320
803.000000, 0.014960
804.000000, 0.014730
805.000000, 0.013440
806.000000, 0.016140
807.000000, 0.014840
808.000000, 0.014920
809.000000, 0.014400
810.000000, 0.013580
811.000000, 0.015000
812.000000, 0.013530
813.000000, 0.012350
814.000000, 0.011220
815.000000, 0.012610
816.000000, 0.014540
817.000000, 0.013560
818.000000, 0.013570
819.000000, 0.014310
820.000000, 0.014390
821.000000, 0.013780
822.000000, 0.012700
823.000000, 0.013100
824.000000, 0.013390
825.000000, 0.014320
826.000000, 0.012490
827.000000, 0.015330
828.000000, 0.014770
829.000000, 0.013210
830.000000, 0.014510
831.000000, 0.012990
832.000000, 0.015160
833.000000, 0.014030
834.000000, 0.012520
835.000000, 0.013230
836.000000, 0.011970
837.000000, 0.014340
838.000000, 0.016600
839.000000, 0.013700
840.000000, 0.010890
841.000000, 0.014860
842.000000, 0.014040
843.000000, 0.013590
844.000000, 0.015260
845.000000, 0.014060
846.000000, 0.015240
847.000000, 0.014390
848.000000, 0.013960
849.000000, 0.012820
850.000000, 0.015060
851.000000, 0.012650
852.000000, 0.013200
853.000000, 0.012490
854.000000, 0.014150
855.000000, 0.012530
856.000000, 0.014790
857.000000, 0.015740
858.000000, 0.015870
859.000000, 0.012560
860.000000, 0.014910
861.000000, 0.016840
862.000000, 0.014090
863.000000, 0.014970
864.000000, 0.013980
865.000000, 0.014050
866.000000, 0.012910
867.000000, 0.012290
868.000000, 0.012540
869.000000, 0.014120
870.000000, 0.012150
871.000000, 0.013650
872.000000, 0.015410
873.000000, 0.015710
874.000000, 0.014570
875.000000, 0.013550
876.000000, 0.013530
877.000000, 0.012760
878.000000, 0.014230
879.000000, 0.015360
880.000000, 0.012850
881.000000, 0.012380
882.000000, 0.013870
883.000000, 0.014970
884.000000, 0.016590
885.000000, 0.011770
886.000000, 0.013550
887.000000, 0.013720
888.000000, 0.013980
889.000000, 0.014330
890.000000, 0.015440
891.000000, 0.011840
892.000000, 0.014460
893.000000, 0.014650
894.000000, 0.015530
895.000000, 0.014470
896.000000, 0.013710
897.000000, 0.012950
898.000000, 0.018040
899.000000, 0.014570
900.000000, 0.014510
901.000000, 0.015820
902.000000, 0.015230
903.000000, 0.014030
904.000000, 0.016990
905.000000, 0.014400
906.000000, 0.015640
907.000000, 0.014060
908.000000, 0.013990
909.000000, 0.013330
910.000000, 0.011990
911.000000, 0.014750
912.000000, 0.013620
913.000000, 0.014500
914.000000, 0.012120
915.000000, 0.012100
916.000000, 0.014570
917.000000, 0.014330
918.000000, 0.013680
919.000000, 0.013680
920.000000, 0.012750
921.000000, 0.013810
922.000000, 0.014190
923.000000, 0.012240
924.000000, 0.014020
925.000000, 0.014410
926.000000, 0.014720
927.000000, 0.014430
928.000000, 0.014860
929.000000, 0.013280
930.000000, 0.015000
931.000000, 0.012190
932.000000, 0.013080
933.000000, 0.013340
934.000000, 0.014320
935.000000, 0.013520
936.000000, 0.013650
937.000000, 0.014690
938.000000, 0.012970
939.000000, 0.015210
940.000000, 0.013250
941.000000, 0.014010
942.000000, 0.013030
943.000000, 0.015510
944.000000, 0.013270
945.000000, 0.012730
946.000000, 0.011920
947.000000, 0.013390
948.000000, 0.015640
949.000000, 0.015450
950.000000, 0.012830
951.000000, 0.014370
952.000000, 0.012080
953.000000, 0.014200
954.000000, 0.012930
955.000000, 0.012720
956.000000, 0.014880
957.000000, 0.014070
958.000000, 0.016050
959.000000, 0.015320
960.000000, 0.014500
961.000000, 0.014790
962.000000, 0.014250
963.000000, 0.013970
964.000000, 0.015590
965.000000, 0.011850
966.000000, 0.015070
967.000000, 0.013230
968.000000, 0.014550
969.000000, 0.013090
970.000000, 0.013570
971.000000, 0.014710
972.000000, 0.013650
973.000000, 0.014770
974.000000, 0.012240
975.000000, 0.015150
976.000000, 0.011550
977.000000, 0.014820
978.000000, 0.012260
979.000000, 0.014820
980.000000, 0.014860
981.000000, 0.013740
982.000000, 0.014150
983.000000, 0.014110
984.000000, 0.015200
985.000000, 0.014530
986.000000, 0.016300
987.000000, 0.013630
988.000000, 0.015550
989.000000, 0.013790
990.000000, 0.014940
991.000000, 0.014230
992.000000, 0.015680
993.000000, 0.013560
994.000000, 0.015440
995.000000, 0.014250
996.000000, 0.016950
997.000000, 0.013280
998.000000, 0.013130
999.000000, 0.014110
1000.000000, 0.015920
1001.000000, 0.013000
1002.000000, 0.011650
1003.000000, 0.013240
1004.000000, 0.014360
1005.000000, 0.013730
1006.000000, 0.013340
1007.000000, 0.015380
1008.000000, 0.015890
1009.000000, 0.014930
1010.000000, 0.011610
1011.000000, 0.016600
1012.000000, 0.015860
1013.000000, 0.014870
1014.000000, 0.016330
1015.000000, 0.013380
1016.000000, 0.014100
1017.000000, 0.013230
1018.000000, 0.013650
1019.000000, 0.013470
1020.000000, 0.013730
1021.000000, 0.015150
1022.000000, 0.014680
1023.000000, 0.011860
1024.000000, 0.015570
1025.000000, 0.015680
1026.000000, 0.015290
1027.000000, 0.014860
1028.000000, 0.013320
1029.000000, 0.015600
1030.000000, 0.012200
1031.000000, 0.014270
1032.000000, 0.013760
1033.000000, 0.012480
1034.000000, 0.010810
1035.000000, 0.015540
1036.000000, 0.013900
1037.000000, 0.014220
1038.000000, 0.014360
1039.000000, 0.014580
1040.000000, 0.011800
1041.000000, 0.011750
1042.000000, 0.014090
1043.000000, 0.014300
1044.000000, 0.012320
1045.000000, 0.014250
1046.000000, 0.016140
1047.000000, 0.013640
1048.000000, 0.013720
1049.000000, 0.015160
1050.000000, 0.014110
1051.000000, 0.014930
1052.000000, 0.013610
1053.000000, 0.013780
1054.000000, 0.014890
1055.000000, 0.014510
1056.000000, 0.014960
1057.000000, 0.013850
1058.000000, 0.014240
1059.000000, 0.011880
1060.000000, 0.014280
1061.000000, 0.012840
1062.000000, 0.014310
1063.000000, 0.015210
1064.000000, 0.014030
1065.000000, 0.014070
1066.000000, 0.013580
1067.000000, 0.012230
1068.000000, 0.012520
1069.000000, 0.015340
1070.000000, 0.014350
1071.000000, 0.012650
1072.000000, 0.013170
1073.000000, 0.016080
1074.000000, 0.013830
1075.000000, 0.012770
1076.000000, 0.017980
1077.000000, 0.015750
1078.000000, 0.012370
1079.000000, 0.017270
1080.000000, 0.014030
1081.000000, 0.015110
1082.000000, 0.015240
1083.000000, 0.013890
1084.000000, 0.013860
1085.000000, 0.011990
1086.000000, 0.011710
1087.000000, 0.014100
1088.000000, 0.013650
1089.000000, 0.013260
1090.000000, 0.012710
1091.000000, 0.013190
1092.000000, 0.013720
1093.000000, 0.015810
1094.000000, 0.014790
1095.000000, 0.014440
1096.000000, 0.015100
1097.000000, 0.014210
1098.000000, 0.015810
1099.000000, 0.015510
1100.000000, 0.014080
1101.000000, 0.014830
