# Wavelength  (nm), Transmission (%)
200.000000, 0.000153
201.000000, 0.000151
202.000000, 0.000162
203.000000, 0.000161
204.000000, 0.000152
205.000000, 0.000145
206.000000, 0.000141
207.000000, 0.000162
208.000000, 0.000137
209.000000, 0.000133
210.000000, 0.000160
211.000000, 0.000130
212.000000, 0.000150
213.000000, 0.000148
214.000000, 0.000149
215.000000, 0.000153
216.000000, 0.000143
217.000000, 0.000153
218.000000, 0.000153
219.000000, 0.000142
220.000000, 0.000155
221.000000, 0.000158
222.000000, 0.000144
223.000000, 0.000158
224.000000, 0.000157
225.000000, 0.000140
226.000000, 0.000150
227.000000, 0.000144
228.000000, 0.000152
229.000000, 0.000137
230.000000, 0.000141
231.000000, 0.000139
232.000000, 0.000129
233.000000, 0.000128
234.000000, 0.000128
235.000000, 0.000117
236.000000, 0.000126
237.000000, 0.000113
238.000000, 0.000118
239.000000, 0.000107
240.000000, 0.000102
241.000000, 0.000096
242.000000, 0.000095
243.000000, 0.000103
244.000000, 0.000096
245.000000, 0.000086
246.000000, 0.000098
247.000000, 0.000090
248.000000, 0.000093
249.000000, 0.000077
250.000000, 0.000096
251.000000, 0.000081
252.000000, 0.000084
253.000000, 0.000083
254.000000, 0.000079
255.000000, 0.000083
256.000000, 0.000088
257.000000, 0.000084
258.000000, 0.000086
259.000000, 0.000093
260.000000, 0.000084
261.000000, 0.000082
262.000000, 0.000088
263.000000, 0.000090
264.000000, 0.000102
265.000000, 0.000079
266.000000, 0.000089
267.000000, 0.000078
268.000000, 0.000082
269.000000, 0.000085
270.000000, 0.000093
271.000000, 0.000094
272.000000, 0.000086
273.000000, 0.000099
274.000000, 0.000086
275.000000, 0.000090
276.000000, 0.000098
277.000000, 0.000094
278.000000, 0.000089
279.000000, 0.000085
280.000000, 0.000088
281.000000, 0.000091
282.000000, 0.000090
283.000000, 0.000086
284.000000, 0.000084
285.000000, 0.000080
286.000000, 0.000099
287.000000, 0.000081
288.000000, 0.000086
289.000000, 0.000087
290.000000, 0.000074
291.000000, 0.000093
292.000000, 0.000070
293.000000, 0.000067
294.000000, 0.000083
295.000000, 0.000061
296.000000, 0.000060
297.000000, 0.000074
298.000000, 0.000068
299.000000, 0.000071
300.000000, 0.000049
301.000000, 0.000064
302.000000, 0.000046
303.000000, 0.000040
304.000000, 0.000063
305.000000, 0.000031
306.000000, 0.000044
307.000000, 0.000037
308.000000, 0.000027
309.000000, 0.000048
310.000000, 0.000025
311.000000, 0.000031
312.000000, 0.000013
313.000000, 0.000025
314.000000, 0.000022
315.000000, 0.000036
316.000000, 0.000016
317.000000, 0.000015
318.000000, 0.000016
319.000000, 0.000023
320.000000, 0.000023
321.000000, 0.000001
322.000000, 0.000014
323.000000, 0.000008
324.000000, 0.000014
325.000000, 0.000024
326.000000, -0.000002
327.000000, 0.000011
328.000000, 0.000018
329.000000, 0.000024
330.000000, 0.000012
331.000000, 0.000001
332.000000, 0.000019
333.000000, 0.000007
334.000000, 0.000002
335.000000, 0.000004
336.000000, 0.000004
337.000000, 0.000002
338.000000, 0.000026
339.000000, 0.000020
340.000000, 0.000008
341.000000, 0.000009
342.000000, 0.000011
343.000000, 0.000004
344.000000, 0.000008
345.000000, -0.000002
346.000000, 0.000014
347.000000, 0.000004
348.000000, 0.000003
349.000000, -0.000127
350.000000, 0.000001
351.000000, 0.000009
352.000000, 0.000008
353.000000, -0.000006
354.000000, 0.000013
355.000000, -0.000005
356.000000, 0.000011
357.000000, 0.000004
358.000000, -0.000000
359.000000, 0.000014
360.000000, -0.000005
361.000000, 0.000004
362.000000, 0.000010
363.000000, -0.000012
364.000000, 0.000017
365.000000, 0.000004
366.000000, 0.000004
367.000000, -0.000001
368.000000, 0.000010
369.000000, 0.000008
370.000000, 0.000008
371.000000, 0.000004
372.000000, 0.000005
373.000000, 0.000007
374.000000, 0.000006
375.000000, 0.000008
376.000000, 0.000003
377.000000, -0.000005
378.000000, 0.000004
379.000000, 0.000002
380.000000, 0.000010
381.000000, 0.000005
382.000000, 0.000010
383.000000, -0.000006
384.000000, 0.000006
385.000000, 0.000010
386.000000, 0.000007
387.000000, 0.000020
388.000000, 0.000009
389.000000, -0.000007
390.000000, 0.000003
391.000000, 0.000012
392.000000, 0.000009
393.000000, 0.000010
394.000000, -0.000000
395.000000, 0.000009
396.000000, 0.000011
397.000000, 0.000002
398.000000, 0.000010
399.000000, -0.000002
400.000000, 0.000001
401.000000, 0.000010
402.000000, 0.000008
403.000000, 0.000009
404.000000, 0.000005
405.000000, -0.000009
406.000000, 0.000006
407.000000, 0.000009
408.000000, 0.000008
409.000000, -0.000002
410.000000, 0.000001
411.000000, 0.000007
412.000000, 0.000010
413.000000, -0.000000
414.000000, 0.000002
415.000000, 0.000005
416.000000, 0.000006
417.000000, -0.000006
418.000000, 0.000004
419.000000, 0.000005
420.000000, 0.000002
421.000000, 0.000007
422.000000, 0.000008
423.000000, 0.000006
424.000000, -0.000008
425.000000, 0.000005
426.000000, 0.000009
427.000000, -0.000005
428.000000, 0.000004
429.000000, 0.000003
430.000000, 0.000007
431.000000, -0.000002
432.000000, 0.000004
433.000000, 0.000015
434.000000, 0.000010
435.000000, 0.000008
436.000000, -0.000007
437.000000, 0.000001
438.000000, 0.000011
439.000000, 0.000013
440.000000, 0.000004
441.000000, 0.000013
442.000000, -0.000007
443.000000, 0.000012
444.000000, 0.000012
445.000000, 0.000006
446.000000, 0.000004
447.000000, 0.000004
448.000000, 0.000003
449.000000, 0.000018
450.000000, 0.000005
451.000000, 0.000008
452.000000, 0.000008
453.000000, 0.000004
454.000000, 0.000005
455.000000, 0.000010
456.000000, 0.000003
457.000000, 0.000005
458.000000, -0.000003
459.000000, 0.000007
460.000000, 0.000002
461.000000, 0.000006
462.000000, 0.000011
463.000000, 0.000002
464.000000, 0.000008
465.000000, 0.000001
466.000000, 0.000001
467.000000, 0.000004
468.000000, 0.000007
469.000000, 0.000003
470.000000, 0.000006
471.000000, 0.000001
472.000000, 0.000008
473.000000, 0.000006
474.000000, 0.000004
475.000000, 0.000006
476.000000, 0.000004
477.000000, 0.000005
478.000000, 0.000005
479.000000, 0.000006
480.000000, 0.000011
481.000000, 0.000006
482.000000, 0.000003
483.000000, 0.000002
484.000000, 0.000006
485.000000, 0.000002
486.000000, 0.000008
487.000000, 0.000000
488.000000, 0.000005
489.000000, 0.000001
490.000000, 0.000004
491.000000, 0.000003
492.000000, 0.000010
493.000000, 0.000006
494.000000, 0.000003
495.000000, 0.000006
496.000000, 0.000005
497.000000, 0.000006
498.000000, 0.000004
499.000000, 0.000003
500.000000, 0.000006
501.000000, 0.000007
502.000000, 0.000006
503.000000, 0.000000
504.000000, 0.000011
505.000000, 0.000004
506.000000, 0.000005
507.000000, 0.000005
508.000000, 0.000000
509.000000, 0.000008
510.000000, 0.000002
511.000000, 0.000004
512.000000, 0.000015
513.000000, 0.000002
514.000000, 0.000008
515.000000, 0.000008
516.000000, 0.000005
517.000000, 0.000006
518.000000, -0.000001
519.000000, 0.000007
520.000000, 0.000004
521.000000, 0.000013
522.000000, 0.000016
523.000000, 0.000013
524.000000, 0.000008
525.000000, 0.000007
526.000000, 0.000007
527.000000, 0.000007
528.000000, 0.000004
529.000000, 0.000003
530.000000, 0.000008
531.000000, 0.000004
532.000000, 0.000007
533.000000, 0.000007
534.000000, 0.000010
535.000000, 0.000001
536.000000, 0.000008
537.000000, 0.000002
538.000000, 0.000003
539.000000, 0.000002
540.000000, 0.000008
541.000000, 0.000007
542.000000, 0.000005
543.000000, 0.000004
544.000000, 0.000001
545.000000, 0.000006
546.000000, 0.000003
547.000000, 0.000004
548.000000, 0.000007
549.000000, 0.000004
550.000000, 0.000006
551.000000, 0.000001
552.000000, 0.000002
553.000000, 0.000003
554.000000, 0.000005
555.000000, 0.000004
556.000000, 0.000008
557.000000, 0.000000
558.000000, 0.000010
559.000000, 0.000003
560.000000, 0.000002
561.000000, -0.000001
562.000000, 0.000004
563.000000, 0.000005
564.000000, 0.000003
565.000000, 0.000004
566.000000, 0.000011
567.000000, 0.000002
568.000000, 0.000007
569.000000, -0.000002
570.000000, 0.000007
571.000000, 0.000010
572.000000, 0.000005
573.000000, 0.000002
574.000000, -0.000000
575.000000, 0.000003
576.000000, 0.000007
577.000000, 0.000002
578.000000, 0.000005
579.000000, 0.000002
580.000000, -0.000006
581.000000, -0.000001
582.000000, 0.000002
583.000000, 0.000001
584.000000, -0.000010
585.000000, 0.000004
586.000000, 0.000008
587.000000, -0.000010
588.000000, 0.000008
589.000000, -0.000002
590.000000, -0.000001
591.000000, 0.000003
592.000000, 0.000004
593.000000, -0.000012
594.000000, 0.000004
595.000000, -0.000006
596.000000, 0.000001
597.000000, 0.000006
598.000000, -0.000008
599.000000, 0.000002
600.000000, 0.000015
601.000000, -0.000006
602.000000, 0.000002
603.000000, 0.000006
604.000000, 0.000001
605.000000, 0.000004
606.000000, 0.000005
607.000000, 0.000003
608.000000, 0.000008
609.000000, 0.000001
610.000000, 0.000006
611.000000, 0.000003
612.000000, 0.000013
613.000000, 0.000002
614.000000, 0.000002
615.000000, 0.000003
616.000000, 0.000006
617.000000, 0.000002
618.000000, 0.000009
619.000000, 0.000001
620.000000, 0.000001
621.000000, 0.000004
622.000000, 0.000001
623.000000, 0.000003
624.000000, 0.000001
625.000000, -0.000001
626.000000, 0.000013
627.000000, 0.000003
628.000000, 0.000005
629.000000, 0.000006
630.000000, 0.000005
631.000000, 0.000005
632.000000, 0.000001
633.000000, -0.000004
634.000000, 0.000004
635.000000, -0.000006
636.000000, 0.000002
637.000000, -0.000004
638.000000, -0.000001
639.000000, -0.000005
640.000000, -0.000003
641.000000, 0.000005
642.000000, 0.000007
643.000000, 0.000006
644.000000, 0.000005
645.000000, -0.000010
646.000000, -0.000002
647.000000, 0.000001
648.000000, 0.000005
649.000000, -0.000003
650.000000, 0.000003
651.000000, 0.000000
652.000000, 0.000007
653.000000, 0.000006
654.000000, 0.000006
655.000000, 0.000002
656.000000, 0.000002
657.000000, 0.000004
658.000000, -0.000001
659.000000, 0.000000
660.000000, 0.000004
661.000000, 0.000007
662.000000, 0.000008
663.000000, 0.000003
664.000000, -0.000001
665.000000, 0.000002
666.000000, 0.000003
667.000000, 0.000003
668.000000, 0.000008
669.000000, 0.000002
670.000000, 0.000004
671.000000, 0.000000
672.000000, 0.000014
673.000000, 0.000001
674.000000, 0.000002
675.000000, 0.000008
676.000000, 0.000006
677.000000, -0.000001
678.000000, 0.000005
679.000000, 0.000013
680.000000, 0.000009
681.000000, -0.000000
682.000000, 0.000005
683.000000, 0.000012
684.000000, -0.000000
685.000000, 0.000009
686.000000, 0.000013
687.000000, 0.000004
688.000000, 0.000004
689.000000, 0.000015
690.000000, 0.000010
691.000000, 0.000010
692.000000, 0.000020
693.000000, 0.000006
694.000000, 0.000008
695.000000, 0.000008
696.000000, 0.000016
697.000000, 0.000008
698.000000, 0.000011
699.000000, 0.000024
700.000000, 0.000005
701.000000, 0.000019
702.000000, 0.000013
703.000000, 0.000022
704.000000, 0.000022
705.000000, 0.000016
706.000000, 0.000031
707.000000, 0.000037
708.000000, 0.000024
709.000000, 0.000028
710.000000, 0.000043
711.000000, 0.000032
712.000000, 0.000032
713.000000, 0.000042
714.000000, 0.000055
715.000000, 0.000057
716.000000, 0.000069
717.000000, 0.000068
718.000000, 0.000102
719.000000, 0.000109
720.000000, 0.000135
721.000000, 0.000163
722.000000, 0.000222
723.000000, 0.000293
724.000000, 0.000373
725.000000, 0.000510
726.000000, 0.000693
727.000000, 0.000977
728.000000, 0.001331
729.000000, 0.001931
730.000000, 0.002771
731.000000, 0.003991
732.000000, 0.005895
733.000000, 0.008770
734.000000, 0.013144
735.000000, 0.020018
736.000000, 0.030945
737.000000, 0.048246
738.000000, 0.076967
739.000000, 0.125367
740.000000, 0.207882
741.000000, 0.354965
742.000000, 0.622354
743.000000, 1.130884
744.000000, 2.110300
745.000000, 4.014067
746.000000, 7.870947
747.000000, 15.480152
748.000000, 28.727827
749.000000, 47.356941
750.000000, 66.903511
751.000000, 80.602715
752.000000, 86.465797
753.000000, 87.600761
754.000000, 86.972870
755.000000, 86.244766
756.000000, 85.859596
757.000000, 85.580292
758.000000, 85.358589
759.000000, 85.188011
760.000000, 84.929031
761.000000, 84.850098
762.000000, 84.858635
763.000000, 85.092369
764.000000, 85.484436
765.000000, 86.059166
766.000000, 86.695297
767.000000, 87.317490
768.000000, 88.021729
769.000000, 88.581245
770.000000, 89.090744
771.000000, 89.385002
772.000000, 89.484200
773.000000, 89.534096
774.000000, 89.405403
775.000000, 89.445969
776.000000, 89.279541
777.000000, 89.123131
778.000000, 88.926819
779.000000, 88.905174
780.000000, 88.883141
781.000000, 88.892159
782.000000, 88.897339
783.000000, 88.909378
784.000000, 88.897003
785.000000, 88.996826
786.000000, 89.062431
787.000000, 88.881752
788.000000, 88.783607
789.000000, 88.726112
790.000000, 88.542946
791.000000, 88.438354
792.000000, 88.186989
793.000000, 88.139771
794.000000, 87.896263
795.000000, 87.793419
796.000000, 87.666550
797.000000, 87.708069
798.000000, 87.643616
799.000000, 87.658218
800.000000, 87.561493
801.000000, 87.670807
802.000000, 87.811783
803.000000, 87.996353
804.000000, 88.164833
805.000000, 88.379463
806.000000, 88.547722
807.000000, 88.784744
808.000000, 88.824829
809.000000, 88.851639
810.000000, 88.949028
811.000000, 88.962547
812.000000, 88.898453
813.000000, 88.878700
814.000000, 88.694771
815.000000, 88.605293
816.000000, 88.407425
817.000000, 88.198502
818.000000, 87.866409
819.000000, 87.686722
820.000000, 87.421021
821.000000, 87.244949
822.000000, 87.064102
823.000000, 86.830078
824.000000, 86.714943
825.000000, 86.534531
826.000000, 86.559410
827.000000, 86.621780
828.000000, 86.483994
829.000000, 86.565445
830.000000, 86.737930
831.000000, 86.797363
832.000000, 86.926971
833.000000, 87.067665
834.000000, 87.434883
835.000000, 87.455429
836.000000, 87.668266
837.000000, 87.970390
838.000000, 88.071518
839.000000, 88.277534
840.000000, 88.508011
841.000000, 88.624443
842.000000, 88.618645
843.000000, 88.816544
844.000000, 88.738869
845.000000, 88.796890
846.000000, 88.894295
847.000000, 88.729706
848.000000, 88.806114
849.000000, 88.673759
850.000000, 88.663345
851.000000, 88.436081
852.000000, 88.283134
853.000000, 88.091537
854.000000, 88.045471
855.000000, 88.031097
856.000000, 87.736969
857.000000, 87.566444
858.000000, 87.587563
859.000000, 87.474579
860.000000, 87.343742
861.000000, 87.364494
862.000000, 87.258682
863.000000, 87.284431
864.000000, 87.203018
865.000000, 87.191383
866.000000, 87.147461
867.000000, 87.148918
868.000000, 87.203819
869.000000, 87.328812
870.000000, 87.251701
871.000000, 87.407486
872.000000, 87.476280
873.000000, 87.514641
874.000000, 87.680511
875.000000, 87.798447
876.000000, 87.852249
877.000000, 87.853081
878.000000, 88.082817
879.000000, 88.132652
880.000000, 88.233513
881.000000, 88.270973
882.000000, 88.355553
883.000000, 88.417130
884.000000, 88.531662
885.000000, 88.642052
886.000000, 88.570610
887.000000, 88.697212
888.000000, 88.611313
889.000000, 88.754608
890.000000, 88.752808
891.000000, 88.677368
892.000000, 88.784691
893.000000, 88.818535
894.000000, 88.744354
895.000000, 88.667839
896.000000, 88.561371
897.000000, 88.543495
898.000000, 88.589966
899.000000, 88.568245
900.000000, 88.515968
901.000000, 88.366287
902.000000, 88.325211
903.000000, 88.278893
904.000000, 88.246788
905.000000, 88.125290
906.000000, 88.129334
907.000000, 88.074150
908.000000, 87.936157
909.000000, 87.875572
910.000000, 87.900681
911.000000, 87.795364
912.000000, 87.674873
913.000000, 87.791344
914.000000, 87.685753
915.000000, 87.555161
916.000000, 87.675278
917.000000, 87.523453
918.000000, 87.670311
919.000000, 87.571373
920.000000, 87.651863
921.000000, 87.696472
922.000000, 87.744415
923.000000, 87.738152
924.000000, 87.776985
925.000000, 87.891167
926.000000, 87.897385
927.000000, 88.041718
928.000000, 88.113609
929.000000, 88.097954
930.000000, 88.256317
931.000000, 88.294014
932.000000, 88.413528
933.000000, 88.431488
934.000000, 88.649925
935.000000, 88.594643
936.000000, 88.619141
937.000000, 88.655586
938.000000, 88.750038
939.000000, 88.858650
940.000000, 88.777863
941.000000, 88.746429
942.000000, 88.838882
943.000000, 88.921448
944.000000, 88.787430
945.000000, 88.759079
946.000000, 88.751930
947.000000, 88.682442
948.000000, 88.627495
949.000000, 88.380608
950.000000, 88.496056
951.000000, 88.359291
952.000000, 88.314934
953.000000, 88.188240
954.000000, 88.074936
955.000000, 87.990524
956.000000, 87.759438
957.000000, 87.766159
958.000000, 87.627892
959.000000, 87.611671
960.000000, 87.464897
961.000000, 87.342537
962.000000, 87.239471
963.000000, 87.293671
964.000000, 87.174850
965.000000, 87.133377
966.000000, 87.257179
967.000000, 87.025520
968.000000, 87.064522
969.000000, 87.037315
970.000000, 87.034981
971.000000, 87.022682
972.000000, 87.096260
973.000000, 87.073524
974.000000, 87.228737
975.000000, 87.274261
976.000000, 87.345978
977.000000, 87.272591
978.000000, 87.443077
979.000000, 87.565086
980.000000, 87.671539
981.000000, 87.778221
982.000000, 87.814674
983.000000, 87.891991
984.000000, 88.167053
985.000000, 88.204323
986.000000, 88.326714
987.000000, 88.435173
988.000000, 88.582573
989.000000, 88.628159
990.000000, 88.621788
991.000000, 88.770630
992.000000, 88.811577
993.000000, 88.844635
994.000000, 88.854897
995.000000, 88.971512
996.000000, 89.017494
997.000000, 89.071960
998.000000, 88.934113
999.000000, 88.906731
1000.000000, 88.913605
1001.000000, 88.868584
1002.000000, 88.871635
1003.000000, 88.795166
1004.000000, 88.721291
1005.000000, 88.743027
1006.000000, 88.648186
1007.000000, 88.490082
1008.000000, 88.478966
1009.000000, 88.349571
1010.000000, 88.266541
1011.000000, 88.167336
1012.000000, 87.989487
1013.000000, 87.979034
1014.000000, 87.824402
1015.000000, 87.792900
1016.000000, 87.802238
1017.000000, 87.597321
1018.000000, 87.558304
1019.000000, 87.505775
1020.000000, 87.506767
1021.000000, 87.489311
1022.000000, 87.446236
1023.000000, 87.414719
1024.000000, 87.289764
1025.000000, 87.467834
1026.000000, 87.366058
1027.000000, 87.329018
1028.000000, 87.298721
1029.000000, 87.353302
1030.000000, 87.409386
1031.000000, 87.425362
1032.000000, 87.479469
1033.000000, 87.555779
1034.000000, 87.767632
1035.000000, 87.777725
1036.000000, 87.714737
1037.000000, 87.956207
1038.000000, 87.941750
1039.000000, 87.985886
1040.000000, 88.146904
1041.000000, 88.140739
1042.000000, 88.226143
1043.000000, 88.356964
1044.000000, 88.448425
1045.000000, 88.507126
1046.000000, 88.628990
1047.000000, 88.639648
1048.000000, 88.708466
1049.000000, 88.805824
1050.000000, 88.833359
1051.000000, 88.842606
1052.000000, 88.824577
1053.000000, 88.825317
1054.000000, 88.882706
1055.000000, 88.949760
1056.000000, 88.883820
1057.000000, 88.920464
1058.000000, 88.748695
1059.000000, 88.852081
1060.000000, 88.846016
1061.000000, 88.810165
1062.000000, 88.745049
1063.000000, 88.683548
1064.000000, 88.616440
1065.000000, 88.503960
1066.000000, 88.595428
1067.000000, 88.341652
1068.000000, 88.271210
1069.000000, 88.263496
1070.000000, 88.083603
1071.000000, 88.159363
1072.000000, 88.031258
1073.000000, 87.883797
1074.000000, 87.841827
1075.000000, 87.721306
1076.000000, 87.699524
1077.000000, 87.491318
1078.000000, 87.506958
1079.000000, 87.417152
1080.000000, 87.262047
1081.000000, 87.297150
1082.000000, 87.285675
1083.000000, 87.166580
1084.000000, 87.140808
