# Wavelength  (nm), Transmission (%)
270.000000, 0.003875
270.200000, 0.003866
270.400000, 0.003857
270.600000, 0.003848
270.800000, 0.003839
271.000000, 0.003829
271.200000, 0.003820
271.400000, 0.003811
271.600000, 0.003802
271.800000, 0.003793
272.000000, 0.003784
272.200000, 0.003775
272.400000, 0.003769
272.600000, 0.003776
272.800000, 0.003783
273.000000, 0.003790
273.200000, 0.003796
273.400000, 0.003803
273.600000, 0.003810
273.800000, 0.003816
274.000000, 0.003823
274.200000, 0.003830
274.400000, 0.003837
274.600000, 0.003843
274.800000, 0.003850
275.000000, 0.003857
275.200000, 0.003665
275.400000, 0.003483
275.600000, 0.003375
275.800000, 0.003359
276.000000, 0.003343
276.200000, 0.003327
276.400000, 0.003311
276.600000, 0.003295
276.800000, 0.003279
277.000000, 0.003263
277.200000, 0.003247
277.400000, 0.003231
277.600000, 0.003216
277.800000, 0.003200
278.000000, 0.003185
278.200000, 0.003169
278.400000, 0.003154
278.600000, 0.003116
278.800000, 0.002905
279.000000, 0.002708
279.200000, 0.002525
279.400000, 0.002354
279.600000, 0.002194
279.800000, 0.002045
280.000000, 0.001907
280.200000, 0.001777
280.400000, 0.001657
280.600000, 0.001545
280.800000, 0.001440
281.000000, 0.001342
281.200000, 0.001251
281.400000, 0.001167
281.600000, 0.001087
281.800000, 0.001096
282.000000, 0.001128
282.200000, 0.001160
282.400000, 0.001193
282.600000, 0.001227
282.800000, 0.001262
283.000000, 0.001298
283.200000, 0.001336
283.400000, 0.001374
283.600000, 0.001413
283.800000, 0.001454
284.000000, 0.001495
284.200000, 0.001538
284.400000, 0.001582
284.600000, 0.001627
284.800000, 0.001606
285.000000, 0.001517
285.200000, 0.001434
285.400000, 0.001355
285.600000, 0.001281
285.800000, 0.001210
286.000000, 0.001144
286.200000, 0.001081
286.400000, 0.001022
286.600000, 0.000966
286.800000, 0.000913
287.000000, 0.000862
287.200000, 0.000815
287.400000, 0.000770
287.600000, 0.000728
287.800000, 0.000696
288.000000, 0.000700
288.200000, 0.000705
288.400000, 0.000710
288.600000, 0.000714
288.800000, 0.000719
289.000000, 0.000723
289.200000, 0.000728
289.400000, 0.000733
289.600000, 0.000737
289.800000, 0.000742
290.000000, 0.000747
290.200000, 0.000752
290.400000, 0.000757
290.600000, 0.000761
290.800000, 0.000766
291.000000, 0.000752
291.200000, 0.000737
291.400000, 0.000721
291.600000, 0.000706
291.800000, 0.000691
292.000000, 0.000676
292.200000, 0.000662
292.400000, 0.000648
292.600000, 0.000634
292.800000, 0.000621
293.000000, 0.000608
293.200000, 0.000595
293.400000, 0.000582
293.600000, 0.000570
293.800000, 0.000558
294.000000, 0.000545
294.200000, 0.000532
294.400000, 0.000520
294.600000, 0.000508
294.800000, 0.000496
295.000000, 0.000484
295.200000, 0.000474
295.400000, 0.000465
295.600000, 0.000455
295.800000, 0.000446
296.000000, 0.000437
296.200000, 0.000429
296.400000, 0.000420
296.600000, 0.000411
296.800000, 0.000403
297.000000, 0.000395
297.200000, 0.000389
297.400000, 0.000400
297.600000, 0.000411
297.800000, 0.000423
298.000000, 0.000435
298.200000, 0.000447
298.400000, 0.000460
298.600000, 0.000473
298.800000, 0.000486
299.000000, 0.000500
299.200000, 0.000515
299.400000, 0.000529
299.600000, 0.000544
299.800000, 0.000560
300.000000, 0.000576
300.200000, 0.000592
300.400000, 0.000570
300.600000, 0.000539
300.800000, 0.000510
301.000000, 0.000483
301.200000, 0.000457
301.400000, 0.000432
301.600000, 0.000409
301.800000, 0.000387
302.000000, 0.000366
302.200000, 0.000346
302.400000, 0.000327
302.600000, 0.000310
302.800000, 0.000293
303.000000, 0.000277
303.200000, 0.000262
303.400000, 0.000266
303.600000, 0.000291
303.800000, 0.000317
304.000000, 0.000346
304.200000, 0.000378
304.400000, 0.000412
304.600000, 0.000450
304.800000, 0.000491
305.000000, 0.000536
305.200000, 0.000708
305.400000, 0.000709
305.600000, 0.000711
305.800000, 0.000713
306.000000, 0.000715
306.200000, 0.000717
306.400000, 0.000718
306.600000, 0.000720
306.800000, 0.000722
307.000000, 0.000724
307.200000, 0.000726
307.400000, 0.000727
307.600000, 0.000729
307.800000, 0.000731
308.000000, 0.000733
308.200000, 0.000736
308.400000, 0.000750
308.600000, 0.000765
308.800000, 0.000780
309.000000, 0.000795
309.200000, 0.000810
309.400000, 0.000826
309.600000, 0.000842
309.800000, 0.000859
310.000000, 0.000875
310.200000, 0.000892
310.400000, 0.000910
310.600000, 0.000928
310.800000, 0.000946
311.000000, 0.000964
311.200000, 0.000983
311.400000, 0.000982
311.600000, 0.000976
311.800000, 0.000970
312.000000, 0.000964
312.200000, 0.000958
312.400000, 0.000953
312.600000, 0.000947
312.800000, 0.000941
313.000000, 0.000935
313.200000, 0.000930
313.400000, 0.000924
313.600000, 0.000918
313.800000, 0.000913
314.000000, 0.000907
314.200000, 0.000902
314.400000, 0.000907
314.600000, 0.000924
314.800000, 0.000942
315.000000, 0.000960
315.200000, 0.000978
315.400000, 0.000997
315.600000, 0.001016
315.800000, 0.001035
316.000000, 0.001055
316.200000, 0.001075
316.400000, 0.001096
316.600000, 0.001117
316.800000, 0.001138
317.000000, 0.001160
317.200000, 0.001182
317.400000, 0.001207
317.600000, 0.001247
317.800000, 0.001288
318.000000, 0.001331
318.200000, 0.001375
318.400000, 0.001420
318.600000, 0.001467
318.800000, 0.001516
319.000000, 0.001566
319.200000, 0.001618
319.400000, 0.001671
319.600000, 0.001726
319.800000, 0.001783
320.000000, 0.001842
320.200000, 0.001903
320.400000, 0.001966
320.600000, 0.002040
320.800000, 0.002119
321.000000, 0.002201
321.200000, 0.002286
321.400000, 0.002374
321.600000, 0.002466
321.800000, 0.002561
322.000000, 0.002660
322.200000, 0.002763
322.400000, 0.002870
322.600000, 0.002980
322.800000, 0.003095
323.000000, 0.003215
323.200000, 0.003339
323.400000, 0.003468
323.600000, 0.003510
323.800000, 0.003476
324.000000, 0.003442
324.200000, 0.003408
324.400000, 0.003374
324.600000, 0.003341
324.800000, 0.003308
325.000000, 0.003276
325.200000, 0.003243
325.400000, 0.003211
325.600000, 0.003180
325.800000, 0.003148
326.000000, 0.003117
326.200000, 0.003087
326.400000, 0.003056
326.600000, 0.002983
326.800000, 0.002782
327.000000, 0.002595
327.200000, 0.002421
327.400000, 0.002258
327.600000, 0.002106
327.800000, 0.001964
328.000000, 0.001832
328.200000, 0.001709
328.400000, 0.001594
328.600000, 0.001487
328.800000, 0.001386
329.000000, 0.001293
329.200000, 0.001206
329.400000, 0.001125
329.600000, 0.001049
329.800000, 0.000983
330.000000, 0.000922
330.200000, 0.000864
330.400000, 0.000810
330.600000, 0.000759
330.800000, 0.000712
331.000000, 0.000667
331.200000, 0.000625
331.400000, 0.000586
331.600000, 0.000549
331.800000, 0.000515
332.000000, 0.000483
332.200000, 0.000452
332.400000, 0.000424
332.600000, 0.000397
332.800000, 0.000386
333.000000, 0.000382
333.200000, 0.000378
333.400000, 0.000375
333.600000, 0.000371
333.800000, 0.000367
334.000000, 0.000363
334.200000, 0.000360
334.400000, 0.000356
334.600000, 0.000352
334.800000, 0.000349
335.000000, 0.000345
335.200000, 0.000342
335.400000, 0.000338
335.600000, 0.000335
335.800000, 0.000331
336.000000, 0.000327
336.200000, 0.000324
336.400000, 0.000320
336.600000, 0.000316
336.800000, 0.000313
337.000000, 0.000309
337.200000, 0.000306
337.400000, 0.000302
337.600000, 0.000299
337.800000, 0.000295
338.000000, 0.000292
338.200000, 0.000289
338.400000, 0.000285
338.600000, 0.000282
338.800000, 0.000279
339.000000, 0.000279
339.200000, 0.000278
339.400000, 0.000277
339.600000, 0.000277
339.800000, 0.000276
340.000000, 0.000276
340.200000, 0.000275
340.400000, 0.000274
340.600000, 0.000274
340.800000, 0.000273
341.000000, 0.000273
341.200000, 0.000272
341.400000, 0.000271
341.600000, 0.000271
341.800000, 0.000270
342.000000, 0.000266
342.200000, 0.000262
342.400000, 0.000257
342.600000, 0.000253
342.800000, 0.000249
343.000000, 0.000245
343.200000, 0.000241
343.400000, 0.000237
343.600000, 0.000233
343.800000, 0.000229
344.000000, 0.000225
344.200000, 0.000221
344.400000, 0.000217
344.600000, 0.000214
344.800000, 0.000210
345.000000, 0.000208
345.200000, 0.000207
345.400000, 0.000207
345.600000, 0.000206
345.800000, 0.000205
346.000000, 0.000205
346.200000, 0.000204
346.400000, 0.000203
346.600000, 0.000203
346.800000, 0.000202
347.000000, 0.000201
347.200000, 0.000200
347.400000, 0.000200
347.600000, 0.000199
347.800000, 0.000198
348.000000, 0.000197
348.200000, 0.000196
348.400000, 0.000194
348.600000, 0.000192
348.800000, 0.000190
349.000000, 0.000189
349.200000, 0.000187
349.400000, 0.000185
349.600000, 0.000184
349.800000, 0.000182
350.000000, 0.000180
350.200000, 0.000179
350.400000, 0.000177
350.600000, 0.000175
350.800000, 0.000174
351.000000, 0.000172
351.200000, 0.000172
351.400000, 0.000172
351.600000, 0.000171
351.800000, 0.000171
352.000000, 0.000171
352.200000, 0.000170
352.400000, 0.000170
352.600000, 0.000170
352.800000, 0.000169
353.000000, 0.000169
353.200000, 0.000169
353.400000, 0.000168
353.600000, 0.000168
353.800000, 0.000168
354.000000, 0.000167
354.200000, 0.000168
354.400000, 0.000169
354.600000, 0.000170
354.800000, 0.000171
355.000000, 0.000172
355.200000, 0.000174
355.400000, 0.000175
355.600000, 0.000176
355.800000, 0.000177
356.000000, 0.000178
356.200000, 0.000179
356.400000, 0.000180
356.600000, 0.000181
356.800000, 0.000182
357.000000, 0.000183
357.200000, 0.000183
357.400000, 0.000180
357.600000, 0.000178
357.800000, 0.000175
358.000000, 0.000173
358.200000, 0.000171
358.400000, 0.000168
358.600000, 0.000166
358.800000, 0.000164
359.000000, 0.000161
359.200000, 0.000159
359.400000, 0.000157
359.600000, 0.000155
359.800000, 0.000153
360.000000, 0.000151
360.200000, 0.000151
360.400000, 0.000157
360.600000, 0.000163
360.800000, 0.000170
361.000000, 0.000176
361.200000, 0.000183
361.400000, 0.000190
361.600000, 0.000198
361.800000, 0.000206
362.000000, 0.000214
362.200000, 0.000222
362.400000, 0.000231
362.600000, 0.000240
362.800000, 0.000250
363.000000, 0.000260
363.200000, 0.000265
363.400000, 0.000217
363.600000, 0.000177
363.800000, 0.000144
364.000000, 0.000118
364.200000, 0.000096
364.400000, 0.000078
364.600000, 0.000064
364.800000, 0.000052
365.000000, 0.000043
365.200000, 0.000079
365.400000, 0.000069
365.600000, 0.000075
365.800000, 0.000082
366.000000, 0.000082
366.200000, 0.000078
366.400000, 0.000076
366.600000, 0.000067
366.800000, 0.000080
367.000000, 0.000075
367.200000, 0.000080
367.400000, 0.000072
367.600000, 0.000077
367.800000, 0.000081
368.000000, 0.000082
368.200000, 0.000074
368.400000, 0.000075
368.600000, 0.000075
368.800000, 0.000084
369.000000, 0.000076
369.200000, 0.000075
369.400000, 0.000071
369.600000, 0.000078
369.800000, 0.000071
370.000000, 0.000085
370.200000, 0.000081
370.400000, 0.000075
370.600000, 0.000069
370.800000, 0.000070
371.000000, 0.000078
371.200000, 0.000076
371.400000, 0.000077
371.600000, 0.000074
371.800000, 0.000079
372.000000, 0.000075
372.200000, 0.000078
372.400000, 0.000081
372.600000, 0.000075
372.800000, 0.000073
373.000000, 0.000073
373.200000, 0.000084
373.400000, 0.000079
373.600000, 0.000070
373.800000, 0.000072
374.000000, 0.000080
374.200000, 0.000076
374.400000, 0.000083
374.600000, 0.000071
374.800000, 0.000078
375.000000, 0.000075
375.200000, 0.000077
375.400000, 0.000085
375.600000, 0.000076
375.800000, 0.000071
376.000000, 0.000071
376.200000, 0.000081
376.400000, 0.000083
376.600000, 0.000075
376.800000, 0.000076
377.000000, 0.000075
377.200000, 0.000082
377.400000, 0.000079
377.600000, 0.000077
377.800000, 0.000078
378.000000, 0.000079
378.200000, 0.000079
378.400000, 0.000083
378.600000, 0.000074
378.800000, 0.000078
379.000000, 0.000074
379.200000, 0.000072
379.400000, 0.000080
379.600000, 0.000083
379.800000, 0.000078
380.000000, 0.000073
380.200000, 0.000080
380.400000, 0.000077
380.600000, 0.000076
380.800000, 0.000081
381.000000, 0.000077
381.200000, 0.000079
381.400000, 0.000077
381.600000, 0.000080
381.800000, 0.000084
382.000000, 0.000079
382.200000, 0.000074
382.400000, 0.000078
382.600000, 0.000081
382.800000, 0.000078
383.000000, 0.000075
383.200000, 0.000075
383.400000, 0.000071
383.600000, 0.000077
383.800000, 0.000079
384.000000, 0.000080
384.200000, 0.000075
384.400000, 0.000076
384.600000, 0.000079
384.800000, 0.000079
385.000000, 0.000083
385.200000, 0.000078
385.400000, 0.000076
385.600000, 0.000082
385.800000, 0.000082
386.000000, 0.000082
386.200000, 0.000075
386.400000, 0.000079
386.600000, 0.000077
386.800000, 0.000081
387.000000, 0.000080
387.200000, 0.000084
387.400000, 0.000079
387.600000, 0.000080
387.800000, 0.000082
388.000000, 0.000080
388.200000, 0.000085
388.400000, 0.000083
388.600000, 0.000078
388.800000, 0.000082
389.000000, 0.000079
389.200000, 0.000080
389.400000, 0.000080
389.600000, 0.000080
389.800000, 0.000078
390.000000, 0.000080
390.200000, 0.000078
390.400000, 0.000085
390.600000, 0.000080
390.800000, 0.000082
391.000000, 0.000081
391.200000, 0.000084
391.400000, 0.000080
391.600000, 0.000075
391.800000, 0.000085
392.000000, 0.000080
392.200000, 0.000089
392.400000, 0.000084
392.600000, 0.000082
392.800000, 0.000077
393.000000, 0.000079
393.200000, 0.000081
393.400000, 0.000084
393.600000, 0.000084
393.800000, 0.000079
394.000000, 0.000084
394.200000, 0.000089
394.400000, 0.000091
394.600000, 0.000095
394.800000, 0.000097
395.000000, 0.000101
395.200000, 0.000106
395.400000, 0.000116
395.600000, 0.000117
395.800000, 0.000125
396.000000, 0.000128
396.200000, 0.000135
396.400000, 0.000142
396.600000, 0.000152
396.800000, 0.000153
397.000000, 0.000162
397.200000, 0.000167
397.400000, 0.000173
397.600000, 0.000184
397.800000, 0.000187
398.000000, 0.000191
398.200000, 0.000197
398.400000, 0.000208
398.600000, 0.000216
398.800000, 0.000223
399.000000, 0.000223
399.200000, 0.000235
399.400000, 0.000241
399.600000, 0.000249
399.800000, 0.000256
400.000000, 0.000719
400.200000, 0.000910
400.400000, 0.000728
400.600000, 0.000882
400.800000, 0.000868
401.000000, 0.000962
401.200000, 0.000657
401.400000, 0.000687
401.600000, 0.000982
401.800000, 0.000453
402.000000, 0.000563
402.200000, 0.001069
402.400000, 0.000696
402.600000, 0.000714
402.800000, 0.000736
403.000000, 0.001073
403.200000, 0.000589
403.400000, 0.000824
403.600000, 0.000604
403.800000, 0.000739
404.000000, 0.001013
404.200000, 0.000887
404.400000, 0.000766
404.600000, 0.000769
404.800000, 0.001039
405.000000, 0.001047
405.200000, 0.000737
405.400000, 0.000787
405.600000, 0.000743
405.800000, 0.000849
406.000000, 0.000594
406.200000, 0.000792
406.400000, 0.000870
406.600000, 0.000901
406.800000, 0.000706
407.000000, 0.000812
407.200000, 0.000919
407.400000, 0.000636
407.600000, 0.000755
407.800000, 0.000809
408.000000, 0.000754
408.200000, 0.000748
408.400000, 0.000663
408.600000, 0.000967
408.800000, 0.000729
409.000000, 0.000971
409.200000, 0.000551
409.400000, 0.000881
409.600000, 0.000666
409.800000, 0.000842
410.000000, 0.000934
410.200000, 0.000922
410.400000, 0.000789
410.600000, 0.000588
410.800000, 0.000830
411.000000, 0.000774
411.200000, 0.001023
411.400000, 0.000793
411.600000, 0.000736
411.800000, 0.000587
412.000000, 0.000784
412.200000, 0.000960
412.400000, 0.001082
412.600000, 0.001065
412.800000, 0.000615
413.000000, 0.000854
413.200000, 0.000932
413.400000, 0.000885
413.600000, 0.000954
413.800000, 0.000901
414.000000, 0.000826
414.200000, 0.000835
414.400000, 0.000667
414.600000, 0.000756
414.800000, 0.000916
415.000000, 0.000870
415.200000, 0.000796
415.400000, 0.000909
415.600000, 0.000793
415.800000, 0.000804
416.000000, 0.000968
416.200000, 0.000818
416.400000, 0.000959
416.600000, 0.001055
416.800000, 0.001002
417.000000, 0.000651
417.200000, 0.000838
417.400000, 0.001019
417.600000, 0.000948
417.800000, 0.000935
418.000000, 0.001047
418.200000, 0.001209
418.400000, 0.000678
418.600000, 0.000894
418.800000, 0.000828
419.000000, 0.000862
419.200000, 0.000708
419.400000, 0.000812
419.600000, 0.001119
419.800000, 0.001112
420.000000, 0.000991
420.200000, 0.001080
420.400000, 0.001096
420.600000, 0.000972
420.800000, 0.000907
421.000000, 0.001153
421.200000, 0.000949
421.400000, 0.001052
421.600000, 0.001084
421.800000, 0.000774
422.000000, 0.001031
422.200000, 0.000803
422.400000, 0.001115
422.600000, 0.001035
422.800000, 0.001089
423.000000, 0.001113
423.200000, 0.001204
423.400000, 0.001108
423.600000, 0.001177
423.800000, 0.001501
424.000000, 0.001632
424.200000, 0.001526
424.400000, 0.001779
424.600000, 0.002285
424.800000, 0.002839
425.000000, 0.004146
425.200000, 0.015738
425.400000, 0.023939
425.600000, 0.036617
425.800000, 0.059037
426.000000, 0.114000
426.200000, 0.270000
426.400000, 0.694000
426.600000, 1.749000
426.800000, 4.365000
427.000000, 12.317000
427.200000, 29.462000
427.400000, 51.599000
427.600000, 67.335000
427.800000, 73.866000
428.000000, 73.653000
428.200000, 75.854000
428.400000, 76.830000
428.600000, 78.676000
428.800000, 81.459000
429.000000, 84.277000
429.200000, 86.811000
429.400000, 86.398000
429.600000, 89.888000
429.800000, 91.150000
430.000000, 92.029000
430.200000, 92.812000
430.400000, 93.466000
430.600000, 93.975000
430.800000, 91.802000
431.000000, 93.687000
431.200000, 93.581000
431.400000, 93.340000
431.600000, 92.959000
431.800000, 92.840000
432.000000, 92.776000
432.200000, 91.076000
432.400000, 92.755000
432.600000, 92.997000
432.800000, 93.132000
433.000000, 93.139000
433.200000, 93.025000
433.400000, 92.923000
433.600000, 91.510000
433.800000, 92.623000
434.000000, 92.819000
434.200000, 93.050000
434.400000, 93.254000
434.600000, 93.481000
434.800000, 93.698000
435.000000, 93.877000
435.200000, 94.167000
435.400000, 94.177000
435.600000, 94.307000
435.800000, 94.303000
436.000000, 94.284000
436.200000, 94.349000
436.400000, 94.247000
436.600000, 94.380000
436.800000, 94.597000
437.000000, 94.583000
437.200000, 94.724000
437.400000, 94.911000
437.600000, 94.909000
437.800000, 95.064000
438.000000, 94.974000
438.200000, 94.869000
438.400000, 94.655000
438.600000, 94.524000
438.800000, 94.363000
439.000000, 94.148000
439.200000, 93.956000
439.400000, 93.836000
439.600000, 93.792000
439.800000, 93.849000
440.000000, 93.860000
440.200000, 94.018000
440.400000, 94.175000
440.600000, 94.317000
440.800000, 94.508000
441.000000, 94.639000
441.200000, 94.806000
441.400000, 94.744000
441.600000, 94.798000
441.800000, 94.762000
442.000000, 94.645000
442.200000, 94.532000
442.400000, 94.540000
442.600000, 94.478000
442.800000, 94.465000
443.000000, 94.501000
443.200000, 94.630000
443.400000, 94.577000
443.600000, 94.616000
443.800000, 94.664000
444.000000, 94.662000
444.200000, 94.614000
444.400000, 94.713000
444.600000, 94.552000
444.800000, 94.442000
445.000000, 94.346000
445.200000, 94.102000
445.400000, 94.064000
445.600000, 93.913000
445.800000, 93.904000
446.000000, 93.892000
446.200000, 93.885000
446.400000, 93.954000
446.600000, 94.101000
446.800000, 94.232000
447.000000, 94.245000
447.200000, 94.420000
447.400000, 94.571000
447.600000, 94.547000
447.800000, 94.577000
448.000000, 94.511000
448.200000, 94.513000
448.400000, 94.438000
448.600000, 94.376000
448.800000, 94.238000
449.000000, 94.220000
449.200000, 94.269000
449.400000, 94.269000
449.600000, 94.384000
449.800000, 94.461000
450.000000, 94.568000
450.200000, 94.652000
